X-Data [Hz]	Piezo (M - Filtered) [mV]	Phase [Deg]	Piezo (M - Filtered) [mV]	Phase [Deg]	
	002: [07-10-24 10:34]		003: [07-10-24 10:37]	
        41,5	     1074,06	-18,5	     1026,19	-34,6
      41,502	     1053,37	-22,0	     1070,69	-27,8
     41,5039	     1046,51	-14,0	     1086,17	-14,8
     41,5059	      1115,6	-32,2	     1058,96	-19,4
     41,5078	     1082,93	-20,9	     1096,55	-31,5
     41,5098	     1114,71	-31,9	     1069,29	-18,4
     41,5117	     1092,51	-21,7	     1092,47	-28,4
     41,5137	     1123,88	-34,0	     1059,76	-15,3
     41,5156	     1092,12	-29,4	     1072,44	-20,4
     41,5176	     1057,26	-16,7	      1118,8	-24,1
     41,5196	     1118,91	-32,5	     1072,94	-16,8
     41,5215	     1076,27	-21,0	     1136,59	-29,9
     41,5235	     1150,51	-31,0	     1078,03	-18,9
     41,5254	     1120,21	-31,3	     1159,52	-31,4
     41,5274	     1135,71	-28,2	     1091,45	-19,6
     41,5293	     1138,83	-36,1	     1144,08	-32,7
     41,5313	     1090,99	-20,1	     1138,51	-29,5
     41,5332	     1140,55	-29,9	     1086,43	-26,9
     41,5352	     1081,21	-17,6	     1130,85	-31,1
     41,5371	     1110,66	-26,9	     1100,01	-21,1
     41,5391	     1072,34	-18,1	     1108,57	-33,0
     41,5411	     1101,75	-18,0	     1140,81	-31,7
      41,543	     1076,66	-19,3	     1134,54	-29,3
      41,545	     1079,58	-16,1	     1159,53	-32,3
     41,5469	     1149,15	-34,9	     1092,05	-21,5
     41,5489	     1101,31	-23,4	     1150,19	-29,7
     41,5508	     1156,79	-30,4	      1090,7	-18,1
     41,5528	     1115,17	-26,7	     1092,02	-23,0
     41,5547	     1154,88	-27,0	     1098,09	-17,1
     41,5567	     1153,32	-33,4	     1086,03	-15,7
     41,5587	     1133,42	-18,9	     1144,81	-30,7
     41,5606	     1187,31	-30,7	     1111,56	-20,2
     41,5626	     1107,27	-17,3	     1146,04	-33,8
     41,5645	     1148,45	-28,0	     1133,59	-23,4
     41,5665	     1098,48	-18,2	     1164,24	-32,2
     41,5684	      1124,1	-17,7	     1174,51	-30,7
     41,5704	     1136,78	-23,0	     1134,25	-23,5
     41,5723	     1115,13	-16,2	     1168,12	-31,5
     41,5743	      1133,4	-32,9	     1081,32	-17,2
     41,5762	     1093,35	-22,3	     1121,08	-23,8
     41,5782	     1186,64	-31,8	     1145,23	-19,3
     41,5802	     1154,01	-26,4	     1102,22	-14,5
     41,5821	     1130,87	-15,7	     1169,67	-34,0
     41,5841	      1179,8	-33,8	     1148,47	-21,6
      41,586	     1113,02	-22,2	     1184,89	-30,6
      41,588	     1170,35	-32,3	     1190,51	-29,6
     41,5899	     1177,37	-27,3	     1124,27	-23,4
     41,5919	      1159,7	-23,8	     1191,28	-35,5
     41,5938	      1191,5	-32,0	     1157,92	-17,3
     41,5958	     1135,35	-16,3	     1179,62	-30,9
     41,5978	     1169,94	-25,1	     1193,95	-33,7
     41,5997	     1126,13	-20,3	      1136,2	-20,2
     41,6017	      1147,2	-20,2	     1194,51	-29,7
     41,6036	     1161,77	-22,8	     1138,62	-16,3
     41,6056	     1140,81	-15,1	     1161,86	-25,5
     41,6075	     1160,81	-28,5	     1162,06	-17,6
     41,6095	     1134,15	-19,9	     1155,32	-17,2
     41,6114	     1214,92	-30,4	     1178,33	-20,1
     41,6134	     1135,58	-17,8	     1125,35	-15,4
     41,6153	     1148,63	-17,4	     1190,43	-32,8
     41,6173	     1165,18	-25,4	     1173,53	-23,6
     41,6193	     1118,56	-17,7	     1208,99	-29,6
     41,6212	     1204,29	-31,0	     1242,99	-28,8
     41,6232	     1166,02	-22,9	     1133,42	-18,4
     41,6251	     1202,64	-29,0	     1174,06	-31,5
     41,6271	     1212,87	-31,5	     1149,06	-18,6
      41,629	     1196,58	-22,4	     1168,85	-22,8
      41,631	     1212,34	-30,9	     1180,27	-22,0
     41,6329	     1138,09	-17,9	     1177,13	-16,7
     41,6349	     1171,84	-20,3	      1228,7	-26,5
     41,6369	     1188,55	-17,3	     1169,39	-15,2
     41,6388	     1165,54	-15,5	     1241,97	-33,9
     41,6408	      1192,9	-25,3	        1228	-26,6
     41,6427	     1156,82	-18,1	      1173,3	-22,6
     41,6447	     1187,59	-18,6	     1218,91	-33,2
     41,6466	     1196,85	-23,5	     1172,72	-15,6
     41,6486	     1182,67	-18,9	     1196,65	-23,2
     41,6505	     1219,69	-29,0	     1229,77	-20,5
     41,6525	     1181,15	-22,4	     1204,07	-16,6
     41,6544	     1246,01	-30,9	     1216,78	-28,0
     41,6564	     1204,31	-27,9	     1189,65	-17,8
     41,6584	        1244	-24,7	     1187,06	-19,4
     41,6603	     1273,25	-28,3	     1223,37	-18,9
     41,6623	     1185,73	-19,4	     1195,24	-17,4
     41,6642	     1232,15	-25,8	     1277,88	-30,1
     41,6662	     1181,45	-17,6	     1237,44	-20,9
     41,6681	     1222,09	-21,7	     1224,19	-28,6
     41,6701	     1192,43	-21,4	     1239,05	-26,5
      41,672	     1189,46	-14,0	     1211,23	-24,0
      41,674	     1243,13	-29,4	     1274,39	-32,9
      41,676	     1195,23	-18,4	     1178,25	-17,2
     41,6779	     1199,29	-14,7	     1213,84	-29,0
     41,6799	     1254,39	-24,8	     1209,16	-17,2
     41,6818	     1211,99	-17,9	     1225,45	-16,7
     41,6838	     1281,94	-32,2	     1294,63	-25,1
     41,6857	     1261,24	-24,3	     1227,88	-18,2
     41,6877	     1258,75	-21,3	     1276,92	-32,2
     41,6896	     1270,83	-30,0	     1298,01	-29,2
     41,6916	     1227,99	-16,2	     1250,49	-18,5
     41,6936	     1254,95	-23,0	     1275,09	-25,9
     41,6955	     1224,32	-15,6	     1262,21	-23,6
     41,6975	     1227,42	-14,4	     1266,57	-27,1
     41,6994	      1247,9	-25,7	     1300,31	-30,5
     41,7014	     1216,88	-17,9	     1225,05	-16,7
     41,7033	     1295,19	-28,0	     1229,88	-26,0
     41,7053	      1264,7	-23,6	      1200,5	-16,0
     41,7072	     1284,85	-25,9	     1210,16	-16,3
     41,7092	     1259,59	-27,1	     1299,64	-25,0
     41,7111	     1263,13	-18,6	     1239,91	-16,9
     41,7131	      1314,8	-31,3	     1306,67	-30,5
     41,7151	     1240,07	-15,2	     1300,68	-25,4
      41,717	     1261,77	-22,4	     1244,22	-25,2
      41,719	     1305,38	-27,3	     1313,18	-30,0
     41,7209	     1254,24	-15,0	     1262,44	-15,3
     41,7229	     1248,56	-18,7	     1277,48	-24,1
     41,7248	     1252,54	-21,1	      1249,8	-14,5
     41,7268	     1251,21	-15,7	        1212	-15,4
     41,7287	     1334,39	-30,9	     1286,58	-25,0
     41,7307	     1273,06	-16,6	     1258,58	-18,0
     41,7327	     1303,27	-26,8	     1323,75	-29,5
     41,7346	     1250,63	-15,0	     1322,48	-25,2
     41,7366	     1279,87	-19,2	     1258,99	-15,1
     41,7385	     1318,08	-28,9	     1333,44	-28,5
     41,7405	      1258,3	-15,7	     1330,71	-26,6
     41,7424	     1291,91	-18,8	     1284,06	-22,3
     41,7444	     1254,98	-17,7	     1323,86	-30,6
     41,7463	     1253,36	-12,4	     1255,09	-15,9
     41,7483	     1310,49	-29,9	     1294,47	-19,5
     41,7502	     1267,18	-24,2	     1320,56	-20,6
     41,7522	     1329,42	-23,4	     1258,19	-14,3
     41,7542	     1346,77	-30,4	     1339,97	-29,8
     41,7561	     1278,97	-17,4	     1314,61	-24,0
     41,7581	     1315,08	-25,5	     1310,34	-23,0
       41,76	        1294	-15,8	     1342,99	-28,8
      41,762	     1313,24	-19,4	     1301,42	-17,8
     41,7639	     1289,77	-20,0	     1344,93	-27,5
     41,7659	      1261,7	-14,3	     1288,78	-15,1
     41,7678	        1334	-28,9	      1279,8	-15,7
     41,7698	     1284,31	-22,4	     1331,47	-19,8
     41,7718	     1339,85	-23,3	     1296,08	-14,8
     41,7737	     1375,04	-28,8	     1383,92	-30,3
     41,7757	     1326,28	-19,0	     1363,78	-24,5
     41,7776	     1361,43	-24,0	     1319,13	-23,0
     41,7796	     1294,36	-16,3	     1354,87	-30,1
     41,7815	     1311,93	-15,4	     1340,28	-23,8
     41,7835	     1360,13	-20,2	     1355,46	-26,3
     41,7854	     1315,24	-17,2	     1394,75	-26,4
     41,7874	      1313,4	-14,4	     1327,79	-14,3
     41,7893	     1348,97	-26,6	     1343,72	-19,1
     41,7913	     1313,66	-18,3	     1327,12	-18,3
     41,7933	     1370,77	-29,7	     1309,74	-15,4
     41,7952	     1333,81	-26,3	     1381,86	-25,2
     41,7972	     1376,71	-24,3	     1340,34	-18,8
     41,7991	     1385,83	-27,4	     1394,05	-28,7
     41,8011	        1341	-16,9	     1395,09	-27,4
      41,803	      1372,3	-26,7	     1342,78	-21,8
      41,805	     1331,16	-16,5	     1392,53	-28,5
     41,8069	      1347,3	-13,0	     1343,28	-13,7
     41,8089	     1373,96	-23,9	     1332,73	-15,1
     41,8109	     1332,75	-19,5	     1392,47	-25,2
     41,8128	     1389,24	-29,0	     1363,88	-11,9
     41,8148	     1397,72	-30,3	     1420,82	-30,6
     41,8167	     1361,35	-17,0	     1423,45	-26,0
     41,8187	     1420,97	-22,5	     1370,36	-23,1
     41,8206	     1339,98	-16,0	      1441,3	-30,0
     41,8226	     1368,94	-14,3	     1436,53	-25,5
     41,8245	     1400,86	-21,3	      1383,2	-22,7
     41,8265	      1349,9	-16,8	     1418,99	-25,3
     41,8284	     1348,98	-12,0	     1339,47	-10,6
     41,8304	     1431,33	-27,4	      1361,8	-20,7
     41,8324	     1387,02	-17,9	     1409,03	-23,3
     41,8343	     1419,32	-24,6	     1357,42	-12,0
     41,8363	     1360,11	-13,4	     1435,22	-27,8
     41,8382	     1374,42	-14,8	      1419,5	-19,7
     41,8402	     1413,11	-27,0	     1394,45	-22,3
     41,8421	     1371,79	-20,3	     1435,94	-27,4
     41,8441	     1431,04	-28,0	     1399,84	-16,7
      41,846	     1410,99	-19,8	     1434,86	-19,1
      41,848	      1379,7	-16,8	      1455,6	-23,7
       41,85	     1448,71	-27,6	     1395,78	-16,0
     41,8519	     1403,09	-22,0	      1448,3	-28,9
     41,8539	     1419,25	-19,1	     1453,41	-25,5
     41,8558	     1456,53	-26,6	     1415,91	-19,3
     41,8578	     1399,31	-12,8	     1448,24	-26,2
     41,8597	     1439,44	-20,2	     1422,46	-13,2
     41,8617	     1480,88	-26,2	     1433,06	-18,4
     41,8636	     1403,17	-14,7	     1462,99	-28,4
     41,8656	     1440,15	-17,7	     1406,28	-13,3
     41,8675	     1432,46	-19,9	     1489,92	-26,2
     41,8695	     1391,18	-14,7	      1487,8	-22,0
     41,8715	     1484,82	-29,0	     1412,22	-19,4
     41,8734	     1405,34	-14,7	     1454,93	-27,0
     41,8754	      1443,6	-17,2	     1475,15	-23,6
     41,8773	     1440,73	-20,1	     1437,36	-19,9
     41,8793	     1407,19	-12,3	     1492,13	-28,7
     41,8812	     1485,56	-28,8	      1432,9	-14,4
     41,8832	     1447,74	-25,7	     1457,66	-19,1
     41,8851	     1471,78	-19,9	     1508,87	-20,7
     41,8871	     1503,54	-26,8	     1441,03	-12,4
     41,8891	     1497,65	-25,5	     1502,24	-26,6
      41,891	     1470,11	-16,9	     1553,34	-26,5
      41,893	     1513,48	-24,4	     1462,45	-19,0
     41,8949	     1423,28	-14,7	     1486,49	-24,6
     41,8969	     1453,44	-13,1	     1476,06	-14,7
     41,8988	     1527,89	-24,5	     1445,58	-11,0
     41,9008	     1483,84	-19,9	      1527,4	-22,2
     41,9027	     1499,19	-23,6	     1486,21	-17,3
     41,9047	     1523,65	-27,9	     1544,95	-27,6
     41,9066	     1461,05	-12,3	     1559,22	-23,3
     41,9086	      1539,9	-23,3	     1469,97	-15,1
     41,9106	     1487,99	-17,4	     1503,94	-25,0
     41,9125	     1454,19	-13,2	     1509,16	-13,5
     41,9145	     1492,97	-23,7	     1494,92	-10,2
     41,9164	      1465,1	-19,4	     1570,38	-24,6
     41,9184	     1563,44	-22,5	     1537,18	-18,9
     41,9203	      1576,5	-27,9	     1479,91	-14,7
     41,9223	     1459,66	-12,6	     1563,93	-26,9
     41,9242	      1487,4	-15,8	     1582,57	-23,7
     41,9262	     1513,59	-20,2	     1506,64	-21,4
     41,9282	     1486,59	-11,9	        1557	-26,8
     41,9301	     1564,24	-27,2	     1492,82	-14,7
     41,9321	      1538,4	-26,7	     1487,04	-14,1
      41,934	     1514,57	-17,0	     1605,69	-21,0
      41,936	      1567,5	-24,9	     1555,51	-13,5
     41,9379	     1499,66	-12,3	     1577,12	-23,1
     41,9399	     1528,92	-13,8	     1607,82	-25,9
     41,9418	     1544,14	-22,7	     1514,37	-12,7
     41,9438	     1508,89	-15,8	     1550,99	-25,1
     41,9457	      1591,9	-25,5	     1539,11	-14,0
     41,9477	     1564,65	-25,6	     1522,11	-11,6
     41,9497	     1547,66	-13,9	     1600,14	-23,3
     41,9516	     1578,94	-21,4	     1589,63	-19,1
     41,9536	     1528,69	-15,1	     1558,97	-18,3
     41,9555	     1513,43	-11,7	     1597,54	-26,7
     41,9575	     1572,46	-15,5	     1550,72	-13,5
     41,9594	     1534,15	-16,7	     1570,47	-15,2
     41,9614	     1551,85	-12,5	     1625,16	-23,3
     41,9633	     1631,12	-24,7	     1576,05	-12,2
     41,9653	     1581,17	-22,6	     1527,32	-12,5
     41,9673	     1597,61	-16,7	     1631,47	-21,9
     41,9692	      1618,6	-22,6	     1591,71	-15,4
     41,9712	     1537,75	-7,9	     1585,56	-21,3
     41,9731	     1583,92	-14,8	     1624,64	-24,3
     41,9751	     1585,76	-18,4	      1569,3	-14,3
      41,977	     1535,02	-13,6	     1656,89	-25,2
      41,979	     1554,41	-13,3	     1673,42	-23,2
     41,9809	     1605,99	-21,3	     1592,49	-15,1
     41,9829	     1583,69	-17,1	     1609,74	-18,8
     41,9848	     1668,86	-20,8	     1616,97	-13,2
     41,9868	     1577,12	-13,9	     1588,26	-10,8
     41,9888	     1593,69	-10,2	     1664,12	-24,9
     41,9907	     1615,87	-16,5	     1657,49	-23,2
     41,9927	     1575,95	-16,2	     1625,51	-12,1
     41,9946	     1574,18	-11,1	     1649,34	-21,6
     41,9966	     1670,35	-23,4	     1665,34	-23,6
     41,9985	     1645,88	-19,5	     1570,01	-13,5
     42,0005	     1675,98	-17,8	     1675,81	-24,0
     42,0024	     1698,27	-23,4	     1679,89	-16,6
     42,0044	     1605,19	-10,4	     1641,22	-14,5
     42,0064	     1643,46	-15,4	     1671,48	-18,8
     42,0083	     1688,98	-15,5	     1656,17	-13,7
     42,0103	     1603,86	-12,2	     1619,98	-15,4
     42,0122	     1589,07	-11,0	     1699,19	-24,5
     42,0142	     1694,25	-20,7	     1687,04	-20,3
     42,0161	     1627,86	-22,0	     1658,61	-17,6
     42,0181	     1650,29	-19,6	     1719,16	-23,4
       42,02	     1682,56	-24,3	     1725,87	-19,0
      42,022	     1610,48	-8,5	     1645,26	-15,3
     42,0239	     1670,03	-12,2	      1688,2	-18,0
     42,0259	     1681,15	-21,4	     1659,16	-12,4
     42,0279	     1631,25	-14,0	      1667,7	-12,1
     42,0298	     1712,97	-24,1	      1748,3	-21,5
     42,0318	     1695,24	-19,5	     1726,56	-20,6
     42,0337	     1646,93	-13,9	     1681,89	-18,6
     42,0357	     1722,99	-20,0	     1741,93	-22,0
     42,0376	      1731,5	-23,0	     1673,84	-8,5
     42,0396	     1663,18	-9,7	     1662,47	-12,2
     42,0415	     1722,82	-15,2	      1752,2	-20,7
     42,0435	     1710,48	-16,0	     1723,15	-14,0
     42,0455	     1688,65	-12,7	      1714,9	-18,2
     42,0474	     1775,76	-22,1	     1739,62	-23,7
     42,0494	     1750,03	-18,2	     1761,79	-22,2
     42,0513	     1745,27	-16,3	     1708,36	-12,8
     42,0533	     1778,96	-15,0	     1760,75	-22,7
     42,0552	     1709,46	-12,8	      1727,6	-14,4
     42,0572	     1711,27	-11,4	     1701,28	-12,7
     42,0591	     1791,57	-21,8	     1830,62	-20,2
     42,0611	      1772,6	-17,5	     1802,22	-17,2
      42,063	     1749,77	-16,4	     1732,93	-14,8
      42,065	     1776,94	-21,7	     1776,13	-19,4
      42,067	     1713,97	-10,6	     1760,06	-10,8
     42,0689	      1743,9	-11,4	     1732,64	-10,4
     42,0709	     1803,58	-17,3	     1815,79	-20,7
     42,0728	      1769,3	-15,5	     1794,18	-20,4
     42,0748	     1757,44	-13,1	     1772,15	-17,8
     42,0767	     1845,54	-21,1	     1821,41	-19,5
     42,0787	      1736,7	-10,8	     1838,21	-23,6
     42,0806	     1763,17	-10,7	      1761,2	-7,5
     42,0826	        1791	-19,5	     1851,19	-17,8
     42,0846	     1765,15	-17,6	     1831,49	-13,8
     42,0865	     1823,83	-18,7	     1776,63	-15,0
     42,0885	     1823,62	-23,5	     1809,64	-19,1
     42,0904	     1805,27	-18,7	     1810,44	-14,4
     42,0924	     1825,79	-13,7	     1772,47	-9,4
     42,0943	     1860,71	-20,8	     1863,06	-23,3
     42,0963	     1758,67	-12,4	      1853,1	-18,4
     42,0982	     1740,03	-9,4	     1797,71	-9,5
     42,1002	     1871,35	-17,9	     1837,04	-19,7
     42,1021	     1866,14	-17,0	     1874,93	-19,7
     42,1041	     1832,51	-10,8	     1803,63	-11,0
     42,1061	     1860,36	-16,1	     1813,33	-10,8
      42,108	     1803,98	-10,0	      1923,1	-10,2
       42,11	     1821,42	-7,3	     1888,28	-12,2
     42,1119	     1900,66	-19,6	      1876,1	-19,5
     42,1139	     1835,77	-16,4	     1907,08	-20,5
     42,1158	     1809,79	-12,8	     1840,16	-5,2
     42,1178	     1912,38	-16,6	     1848,38	-14,6
     42,1197	     1818,45	-11,4	     1911,19	-19,5
     42,1217	     1848,98	-7,6	     1895,65	-12,9
     42,1237	     1886,09	-22,8	     1869,73	-12,4
     42,1256	     1849,39	-15,0	     1907,04	-21,8
     42,1276	     1826,71	-13,3	      1890,2	-11,4
     42,1295	     1919,18	-18,6	     1858,82	-8,4
     42,1315	     1956,94	-22,0	     1981,01	-16,2
     42,1334	     1934,48	-7,5	     1969,79	-14,8
     42,1354	     1990,19	-17,3	     1890,18	-15,5
     42,1373	     1949,81	-11,4	     1939,71	-17,0
     42,1393	     1900,16	-7,5	     1947,28	-11,5
     42,1413	     1988,86	-17,8	     1903,22	-12,5
     42,1432	     1956,98	-17,3	     1961,71	-20,1
     42,1452	     1897,67	-5,3	     1976,17	-16,0
     42,1471	     1950,38	-8,0	     1906,64	-8,1
     42,1491	     1957,16	-14,9	     1931,09	-11,6
      42,151	     1918,16	-11,2	     1970,56	-12,7
      42,153	     1988,15	-18,2	      1930,8	-6,4
     42,1549	      1996,4	-19,4	     1956,45	-18,6
     42,1569	     1921,57	-10,7	     1997,57	-21,8
     42,1588	     1936,49	-8,4	     1915,09	-13,2
     42,1608	     1954,08	-18,2	      1946,9	-9,0
     42,1628	     1882,65	-10,0	     2026,16	-12,6
     42,1647	      1932,7	-13,0	     1977,82	-11,1
     42,1667	     1956,64	-16,2	     1953,36	-6,9
     42,1686	     1925,39	-5,6	     2029,39	-19,9
     42,1706	     1971,48	-4,7	     2041,83	-17,7
     42,1725	     2044,24	-16,0	     1949,27	-8,7
     42,1745	     2010,26	-12,4	     2068,46	-16,6
     42,1764	      1988,1	-5,9	     2047,61	-11,7
     42,1784	     2094,27	-17,1	     2005,45	-12,6
     42,1804	     1994,26	-7,1	     2036,12	-15,4
     42,1823	     1988,81	-7,6	     2085,77	-17,0
     42,1843	     2079,66	-18,1	      2000,2	-3,3
     42,1862	     2084,37	-17,4	     1994,12	-9,9
     42,1882	     2035,05	-4,8	     2051,76	-17,6
     42,1901	     2063,87	-10,4	     2038,12	-9,2
     42,1921	     2044,57	-15,8	     2052,13	-13,9
      42,194	     2037,53	-8,7	     2107,41	-19,9
      42,196	     2128,12	-17,6	     2057,23	-6,7
     42,1979	     2122,35	-17,3	     2022,29	-7,5
     42,1999	     2060,25	-7,7	     2116,85	-18,2
     42,2019	      2107,9	-7,8	     2131,58	-14,4
     42,2038	     2123,17	-14,2	     2062,11	-5,9
     42,2058	     2084,52	-11,7	      2076,4	-10,9
     42,2077	     2143,81	-13,3	     2111,28	-9,1
     42,2097	     2149,29	-17,8	     2076,69	-6,1
     42,2116	     2109,92	-17,1	     2061,25	-8,4
     42,2136	     2095,75	-7,9	     2168,35	-17,5
     42,2155	     2135,32	-12,2	     2076,23	-11,4
     42,2175	     2096,12	-10,0	     2114,34	-10,9
     42,2195	     2046,45	-6,4	     2178,45	-13,9
     42,2214	      2177,4	-13,3	     2146,34	-7,0
     42,2234	     2173,17	-17,2	     2133,43	-8,8
     42,2253	     2127,44	-8,1	     2208,91	-16,2
     42,2273	      2197,6	-12,8	     2210,89	-13,7
     42,2292	     2259,22	-17,0	     2107,23	-9,4
     42,2312	      2161,3	-6,2	     2120,37	-9,0
     42,2331	     2154,14	-8,5	     2189,25	-12,5
     42,2351	     2199,41	-14,9	     2170,28	-6,6
      42,237	     2168,34	-16,6	     2210,47	-15,4
      42,239	     2179,02	-11,0	     2248,06	-16,5
      42,241	     2216,38	-13,3	     2161,64	-5,3
     42,2429	     2128,33	-10,8	     2180,43	-9,8
     42,2449	     2113,29	-5,0	     2207,19	-10,7
     42,2468	     2175,29	-18,2	     2235,42	-8,6
