X-Data [Hz]	Piezo (M - Filtered) [mV]	Phase [Deg]	Piezo (M - Filtered) [mV]	Phase [Deg]	
	002: [07-08-24 08:26]		003: [07-08-24 08:30]	
          41	     88,6849	74,2	     103,901	73,6
     41,0029	     95,4869	73,8	     103,842	73,8
     41,0059	     98,7451	73,6	     104,154	73,6
     41,0088	     100,333	73,5	      104,24	73,6
     41,0117	     101,564	73,3	     104,551	73,4
     41,0147	     102,223	73,1	     105,075	73,6
     41,0176	      102,61	73,5	     104,989	73,5
     41,0205	      103,14	73,3	     105,168	73,6
     41,0235	     103,163	73,1	     105,559	73,8
     41,0264	     103,484	73,5	     105,664	73,7
     41,0293	     103,646	73,4	     106,035	73,6
     41,0323	      104,02	73,4	     106,067	73,7
     41,0352	      104,15	73,5	     106,417	73,8
     41,0381	     104,324	73,5	     106,772	73,8
     41,0411	     104,594	73,7	      106,91	73,7
      41,044	     104,926	73,7	      107,18	73,7
     41,0469	     105,268	73,5	     107,531	74,0
     41,0499	     105,261	73,7	     107,744	74,2
     41,0528	     105,719	73,7	     107,855	73,7
     41,0557	     105,756	73,3	     108,167	74,1
     41,0587	     105,917	73,6	     108,295	74,2
     41,0616	     106,251	73,5	     108,664	74,2
     41,0645	     106,342	73,8	     109,092	74,0
     41,0674	     106,812	73,9	     109,227	74,2
     41,0704	     106,967	73,8	     109,544	74,2
     41,0733	     107,241	73,8	     109,706	74,2
     41,0762	     107,521	74,0	     109,988	74,1
     41,0792	     107,895	73,9	     110,123	74,2
     41,0821	     107,832	73,8	     110,454	74,3
      41,085	     108,247	73,8	     110,663	74,3
      41,088	      108,51	74,0	      111,08	74,1
     41,0909	     108,704	74,0	     111,251	74,2
     41,0938	     109,023	73,9	     111,444	74,5
     41,0968	     109,077	74,0	      111,84	74,4
     41,0997	     109,416	74,1	     112,197	74,4
     41,1026	     109,855	74,2	     112,491	74,3
     41,1056	     110,117	74,0	     112,728	74,5
     41,1085	      110,15	74,1	     112,935	74,5
     41,1114	     110,625	74,3	     113,142	74,4
     41,1144	     110,883	74,2	     113,356	74,4
     41,1173	     111,018	74,1	      113,82	74,8
     41,1202	     111,141	74,0	     113,904	74,7
     41,1232	     111,469	74,4	     114,274	74,4
     41,1261	     111,941	74,3	     114,806	74,4
      41,129	     111,915	74,2	      114,88	74,5
      41,132	     112,412	74,1	     115,154	74,7
     41,1349	     112,667	74,2	     115,399	74,5
     41,1378	     113,121	74,5	      115,87	74,8
     41,1408	     113,014	74,3	     115,958	74,7
     41,1437	     113,527	74,5	      116,42	75,0
     41,1466	     113,634	74,2	     116,596	74,8
     41,1496	     113,885	74,4	     117,072	74,6
     41,1525	     114,297	74,4	     117,329	74,7
     41,1554	     114,517	74,3	     117,553	74,9
     41,1584	     114,753	74,3	     117,704	74,8
     41,1613	     115,214	74,4	      118,22	74,9
     41,1642	     115,451	74,5	     118,406	74,9
     41,1672	     115,598	74,5	     118,719	75,2
     41,1701	     116,037	74,5	     118,935	75,1
      41,173	     116,158	74,6	     119,627	75,0
      41,176	     116,548	74,8	      119,86	75,1
     41,1789	     117,023	74,8	     120,028	74,9
     41,1818	     117,214	74,6	     120,596	75,2
     41,1847	     117,552	74,7	     120,723	75,2
     41,1877	     117,771	74,7	     120,985	75,3
     41,1906	      117,92	74,9	     121,293	75,0
     41,1936	     118,415	74,7	     121,831	75,4
     41,1965	     118,573	74,8	     122,102	75,4
     41,1994	     118,967	74,9	     122,508	75,3
     41,2023	     119,163	75,0	     122,734	75,2
     41,2053	     119,612	74,9	      123,09	75,2
     41,2082	     120,079	74,8	     123,411	75,6
     41,2111	     120,111	74,9	     124,082	75,6
     41,2141	     120,506	75,1	     124,067	75,6
      41,217	     120,821	75,2	     124,497	75,4
     41,2199	     121,028	75,0	     124,843	75,5
     41,2229	     121,474	75,0	     125,558	75,7
     41,2258	     122,012	75,0	     125,693	75,7
     41,2287	     122,226	75,2	     125,868	75,8
     41,2317	     122,239	75,2	     126,407	75,7
     41,2346	     122,916	75,3	     126,872	75,7
     41,2375	       123,2	75,1	     127,056	75,9
     41,2405	     123,425	75,1	     127,959	75,7
     41,2434	      123,67	75,3	     128,321	75,8
     41,2463	     124,302	75,4	     128,212	76,0
     41,2493	     124,445	75,3	     129,233	75,8
     41,2522	     124,887	75,4	     131,266	76,3
     41,2551	     125,116	75,3	     128,382	77,2
     41,2581	     125,617	75,4	     127,864	74,8
      41,261	     125,747	75,8	     141,919	74,1
     41,2639	      126,35	75,5	      131,83	83,6
     41,2669	     126,464	75,4	     104,226	73,3
     41,2698	     127,009	75,7	     190,373	58,4
     41,2727	     127,156	75,7	     328,992	77,8
     41,2757	     127,825	75,7	     408,797	94,1
     41,2786	     128,005	75,6	     461,901	106,7
     41,2815	     128,171	75,7	     494,325	115,7
     41,2845	     128,777	75,8	     515,692	122,5
     41,2874	     129,266	75,7	     531,881	127,9
     41,2903	     129,475	75,9	      541,43	131,5
     41,2933	     129,919	76,0	     549,087	134,3
     41,2962	     130,446	75,9	     554,719	136,7
     41,2991	     130,755	76,0	     559,568	139,2
     41,3021	     131,114	76,2	     563,034	140,8
      41,305	     131,545	76,2	     565,836	142,1
     41,3079	     131,851	76,1	     568,026	143,5
     41,3109	     132,074	76,0	     570,128	144,5
     41,3138	     132,457	76,1	     571,885	145,9
     41,3167	     133,054	76,2	     572,971	146,9
     41,3196	     133,325	76,3	     574,079	147,8
     41,3226	     133,638	76,5	     575,114	148,6
     41,3255	     134,234	76,4	     575,907	149,5
     41,3284	     134,625	76,4	      576,67	150,2
     41,3314	     135,207	76,4	     577,211	150,9
     41,3343	     135,612	76,5	     577,622	151,3
     41,3372	     135,846	76,6	     577,992	152,0
     41,3402	      136,31	76,5	     578,494	152,8
     41,3431	     136,853	76,5	     578,884	153,3
      41,346	     137,278	76,5	      579,32	153,9
      41,349	     137,553	76,6	     579,355	154,3
     41,3519	     137,871	76,8	     579,559	154,7
     41,3548	     138,631	76,9	     579,706	155,1
     41,3578	     139,002	76,5	     579,651	155,7
     41,3607	     139,198	76,7	     579,587	156,3
     41,3636	      139,83	76,8	     579,807	156,7
     41,3666	     140,403	76,9	     579,694	157,1
     41,3695	     140,858	77,0	     579,935	157,4
     41,3724	     141,293	77,0	     579,716	157,7
     41,3754	     141,636	76,9	     579,712	158,3
     41,3783	     141,988	77,0	      579,97	158,7
     41,3812	     142,667	77,2	     579,642	159,2
     41,3842	     143,063	77,3	     579,431	159,2
     41,3871	     143,625	77,2	     579,088	159,5
       41,39	     144,127	77,4	     578,792	159,9
      41,393	     144,647	77,2	     578,813	160,2
     41,3959	     144,977	77,3	     578,713	160,9
     41,3988	     145,432	77,5	     578,462	161,0
     41,4018	     146,334	77,5	     578,219	161,3
     41,4047	     146,773	77,6	     578,248	161,7
     41,4076	     147,146	77,6	     578,034	161,9
     41,4106	     147,578	77,7	     577,592	162,5
     41,4135	     148,263	77,8	     577,517	162,7
     41,4164	     148,804	77,7	     577,115	163,0
     41,4194	     149,316	77,8	      576,74	163,2
     41,4223	     149,844	77,8	     576,459	163,4
     41,4252	     150,297	78,0	      576,34	163,8
     41,4282	     150,864	77,8	      576,18	164,0
     41,4311	     151,567	78,0	     575,715	164,3
      41,434	     152,242	77,8	     575,258	164,7
      41,437	     152,523	77,9	       574,9	164,8
     41,4399	     153,169	78,1	     574,651	165,0
     41,4428	     153,791	78,3	     574,162	165,3
     41,4457	     154,096	78,3	     573,913	165,4
     41,4487	     154,629	78,4	     573,526	165,9
     41,4516	     155,673	78,3	     573,181	166,2
     41,4545	     156,456	78,3	     572,911	166,4
     41,4575	     156,675	78,6	     572,685	166,7
     41,4604	     157,328	78,5	     572,239	166,8
     41,4633	      157,97	78,7	     571,659	167,1
     41,4663	     158,616	78,6	     571,348	167,6
     41,4692	     159,302	78,7	     571,104	167,7
     41,4721	     159,868	78,6	     570,734	168,0
     41,4751	     160,424	78,8	     570,377	168,2
      41,478	      161,34	79,1	     569,879	168,2
     41,4809	      161,98	79,2	     569,247	168,4
     41,4839	     162,744	79,2	     569,056	168,6
     41,4868	     163,375	78,9	     568,666	168,8
     41,4897	     163,984	79,0	     568,032	169,3
     41,4927	     164,902	79,3	     567,699	169,6
     41,4956	     165,459	79,2	      567,36	169,6
     41,4985	     165,961	79,2	      567,13	169,8
     41,5015	     166,824	79,6	     566,561	169,9
     41,5044	     167,761	79,8	     566,195	170,3
     41,5073	      168,44	79,6	     565,749	170,7
     41,5103	     168,874	79,7	     565,372	170,9
     41,5132	     169,758	79,8	      565,04	171,1
     41,5161	     170,777	79,9	     564,506	171,2
     41,5191	     171,246	80,0	     564,018	171,1
      41,522	     172,231	80,0	     563,459	171,4
     41,5249	     172,756	80,0	     562,984	171,6
     41,5279	     173,933	80,3	       562,6	171,7
     41,5308	     174,799	80,0	     562,159	172,0
     41,5337	      175,62	80,2	     561,633	172,6
     41,5367	     176,416	80,3	     561,187	172,7
     41,5396	      177,17	80,3	     560,968	172,8
     41,5425	      178,19	80,7	     560,245	172,8
     41,5455	     178,968	80,7	     560,001	173,0
     41,5484	     179,935	80,8	     559,298	173,3
     41,5513	     180,917	81,0	     558,926	173,5
     41,5543	     181,729	81,0	     558,296	173,6
     41,5572	     182,755	80,9	     557,968	173,8
     41,5601	     183,632	81,0	     557,366	174,1
      41,563	     184,722	81,0	     557,046	174,3
      41,566	     185,542	81,2	      556,76	174,4
     41,5689	     186,676	81,3	     556,174	174,5
     41,5718	     187,669	81,7	     555,336	174,7
     41,5748	     188,756	81,7	     554,896	175,0
     41,5777	     190,137	81,9	     554,767	175,3
     41,5806	     191,123	81,8	      554,26	175,3
     41,5836	     192,294	81,8	     553,625	175,6
     41,5865	     193,346	82,0	     553,099	175,8
     41,5894	     194,306	82,0	     552,555	175,9
     41,5924	     195,464	82,4	     552,063	176,1
     41,5953	     196,774	82,5	     551,525	176,2
     41,5982	     198,177	82,5	     551,098	176,4
     41,6012	     199,518	82,6	     550,647	176,7
     41,6041	     200,822	83,0	     550,157	176,7
      41,607	     202,037	83,0	     549,445	176,9
       41,61	     203,435	83,0	     548,825	177,1
     41,6129	     204,852	83,2	     548,415	177,2
     41,6158	     206,364	83,4	     547,953	177,3
     41,6188	      207,73	83,6	     547,462	177,5
     41,6217	     209,222	83,6	     546,829	177,7
     41,6246	     210,718	83,8	     546,301	177,8
     41,6276	     212,695	83,9	     545,866	177,9
     41,6305	     214,114	84,2	     545,305	178,3
     41,6334	     215,728	84,2	     544,749	178,6
     41,6364	     217,458	84,4	     544,347	178,7
     41,6393	     219,079	84,6	     544,096	179,0
     41,6422	     220,939	84,9	     543,439	178,8
     41,6452	     222,965	85,2	     542,778	179,0
     41,6481	     225,146	85,4	     542,192	179,0
      41,651	      227,29	85,7	     541,562	179,2
      41,654	     229,312	85,9	     540,875	179,6
     41,6569	     231,874	86,1	     540,557	179,7
     41,6598	     234,331	86,4	     539,781	180,0
     41,6628	     236,781	86,6	     539,369	180,0
     41,6657	     239,325	86,9	     539,029	180,1
     41,6686	      242,42	87,3	      538,36	180,3
     41,6716	     245,403	87,6	     537,752	180,3
     41,6745	     248,504	88,0	     537,173	180,5
     41,6774	     251,773	88,3	      536,67	180,5
     41,6804	     256,017	89,2	     536,051	180,7
     41,6833	     259,881	89,5	     535,492	180,9
     41,6862	     264,237	90,0	     534,974	181,4
     41,6891	     268,915	90,8	     534,408	181,4
     41,6921	     275,607	91,4	     533,854	181,7
      41,695	     281,605	92,3	     533,153	181,8
     41,6979	     288,569	93,3	     532,758	181,7
     41,7009	     296,594	94,6	     532,221	181,9
     41,7038	     305,892	96,1	     531,642	182,0
     41,7067	     317,168	97,8	     530,983	182,2
     41,7097	     333,665	101,2	     530,523	182,2
     41,7126	     351,255	104,6	     529,594	182,3
     41,7155	     373,841	109,3	     528,969	182,6
     41,7185	     402,048	115,8	     528,754	182,7
     41,7214	     442,381	126,7	      528,33	182,9
     41,7243	      483,21	139,6	     527,736	183,1
     41,7273	     524,184	154,9	     526,784	183,3
     41,7302	     552,143	170,7	     526,558	183,4
     41,7331	     556,767	183,8	     525,747	183,5
     41,7361	     545,261	187,3	     525,131	183,5
      41,739	     533,469	186,5	      524,47	183,7
     41,7419	     528,348	184,5	     524,116	183,7
     41,7449	     527,908	183,3	     523,492	183,8
     41,7478	     528,905	183,3	     522,799	184,0
     41,7507	     529,403	183,7	     522,335	184,4
     41,7537	     529,063	184,0	     521,971	184,3
     41,7566	     528,324	184,3	     521,186	184,5
     41,7595	     527,409	184,6	     520,616	184,6
     41,7625	     526,509	184,4	     519,989	185,0
     41,7654	     525,719	184,5	     519,503	185,1
     41,7683	     524,926	184,6	     518,872	185,3
     41,7713	     524,373	184,8	     518,249	185,4
     41,7742	     523,698	184,9	     517,815	185,3
     41,7771	     522,993	184,9	     517,135	185,3
     41,7801	      522,36	185,2	     516,589	185,7
      41,783	     521,431	185,5	     515,877	185,7
     41,7859	     520,824	185,6	     515,221	185,8
     41,7889	     520,158	185,7	     514,714	186,0
     41,7918	      519,46	185,7	     514,338	186,1
     41,7947	     519,195	185,9	     513,721	186,2
     41,7977	     518,218	185,9	     513,029	186,3
     41,8006	     517,486	186,2	     512,243	186,7
     41,8035	     516,916	186,3	     511,723	186,8
     41,8064	     516,151	186,4	     511,393	186,8
     41,8094	     515,474	186,4	     510,669	186,9
     41,8123	      514,84	186,6	     510,058	187,1
     41,8153	     514,472	186,6	     509,275	187,3
     41,8182	     513,648	186,8	     508,867	187,3
     41,8211	     512,933	187,1	     508,208	187,6
      41,824	      512,13	187,2	     507,724	187,5
      41,827	     511,453	187,2	     506,969	187,6
     41,8299	     510,796	187,3	     506,305	187,8
     41,8328	     510,257	187,5	     505,852	187,9
     41,8358	     509,512	187,8	     505,227	188,0
     41,8387	     509,118	187,9	     504,579	188,2
     41,8416	     508,385	188,0	      503,92	188,4
     41,8446	     507,768	188,2	     503,414	188,3
     41,8475	     506,851	188,0	     502,725	188,5
     41,8504	     506,303	188,1	     502,247	188,6
     41,8534	     505,889	188,4	     501,499	189,0
     41,8563	     505,255	188,5	      500,98	189,0
     41,8592	      504,37	188,5	     500,446	189,2
     41,8622	     503,684	188,7	     499,832	189,3
     41,8651	     502,981	188,7	     499,144	189,5
      41,868	     502,318	188,8	     498,459	189,4
      41,871	     501,675	189,1	     497,744	189,6
     41,8739	     500,965	189,3	     497,442	189,7
     41,8768	     500,271	189,3	     497,038	190,0
     41,8798	     499,769	189,5	     496,587	190,1
     41,8827	     499,104	189,7	     495,397	190,1
     41,8856	     498,357	189,8	     494,948	190,1
     41,8886	     497,695	189,9	     494,099	190,2
     41,8915	     497,132	190,0	      493,69	190,3
     41,8944	     496,657	190,0	     493,024	190,5
     41,8974	     495,826	190,3	     492,436	190,5
     41,9003	     495,191	190,4	     492,019	190,7
     41,9032	     494,472	190,7	     491,524	190,7
     41,9062	     493,855	190,7	     490,607	190,9
     41,9091	     493,243	190,5	     489,849	190,9
      41,912	     492,519	190,8	     489,549	191,1
      41,915	     492,088	191,0	     488,854	191,2
     41,9179	     491,375	191,2	     488,311	191,5
     41,9208	     490,433	191,1	      487,71	191,5
     41,9238	     489,832	191,1	     487,149	191,6
     41,9267	     489,259	191,3	     486,356	191,7
     41,9296	     488,508	191,4	     485,988	192,1
     41,9326	     488,164	191,4	     485,153	192,0
     41,9355	     487,355	191,6	     484,536	192,2
     41,9384	     486,717	191,7	     483,847	192,4
     41,9413	     486,035	191,7	     483,316	192,5
     41,9443	     485,408	191,9	     482,811	192,6
     41,9472	     484,817	192,1	      482,36	192,8
     41,9501	     484,027	192,4	      481,79	192,8
     41,9531	     483,418	192,3	     480,913	192,8
      41,956	     482,587	192,4	     479,946	192,9
     41,9589	     481,936	192,8	     479,592	193,1
     41,9619	     481,459	192,7	     478,889	193,1
     41,9648	      480,77	193,0	     478,199	193,3
     41,9677	     480,159	193,1	     477,773	193,4
     41,9707	     479,474	193,0	     477,296	193,5
     41,9736	     478,927	193,4	     476,464	193,5
     41,9765	     477,904	193,6	     475,921	193,8
     41,9795	     477,333	193,5	     475,307	193,7
     41,9824	     476,798	193,6	      474,59	194,0
     41,9853	     476,121	193,6	     473,968	194,0
     41,9883	      475,61	193,7	     473,479	194,1
     41,9912	     474,852	194,0	     472,899	194,3
     41,9941	     473,963	194,1	      472,32	194,1
     41,9971	     473,331	194,1	     471,414	194,5
          42	     472,797	194,3	      471,09	194,6
     42,0029	     472,254	194,4	     470,447	194,6
     42,0059	     471,453	194,5	     469,587	194,7
     42,0088	     470,789	194,7	     468,903	194,9
     42,0117	     470,294	194,7	     468,209	194,8
     42,0147	       469,7	194,8	     467,654	195,0
     42,0176	     468,886	194,8	     467,329	195,3
     42,0205	     468,099	195,1	     466,576	195,2
     42,0235	     467,514	195,1	     465,756	195,4
     42,0264	     467,008	195,3	     465,383	195,4
     42,0293	     466,178	195,2	     464,664	195,6
     42,0323	     465,581	195,4	     463,925	195,8
     42,0352	     464,791	195,6	      463,37	195,9
     42,0381	     464,331	195,7	     462,821	196,0
     42,0411	     463,635	195,6	     462,128	196,0
      42,044	     463,053	195,7	      461,31	196,2
     42,0469	     462,172	196,0	     460,861	196,2
     42,0499	     461,626	196,2	      460,19	196,4
     42,0528	     460,964	196,4	     459,724	196,4
     42,0557	      460,26	196,2	     459,091	196,4
     42,0587	     459,778	196,4	     458,453	196,7
     42,0616	     458,978	196,6	     457,794	196,7
     42,0645	      458,39	196,6	     457,154	196,8
     42,0674	     457,697	196,8	      456,45	197,0
     42,0704	      456,93	196,8	     455,981	197,0
     42,0733	     456,223	196,8	     455,272	197,1
     42,0762	     455,812	197,1	     454,496	197,3
     42,0792	     455,012	197,2	     453,937	197,2
     42,0821	     454,251	197,1	     453,437	197,6
      42,085	     453,661	197,4	     452,606	197,5
      42,088	     452,954	197,4	     452,142	197,7
     42,0909	     452,389	197,5	     451,447	197,8
     42,0938	     451,848	197,7	     450,586	197,8
     42,0968	     451,042	197,8	     450,083	197,8
     42,0997	     450,324	197,9	     449,418	198,1
     42,1026	     449,597	198,0	     449,008	198,1
     42,1056	     449,201	198,1	      448,15	198,2
     42,1085	     448,482	198,1	     447,551	198,4
     42,1114	     447,615	198,2	     447,092	198,5
     42,1144	     447,018	198,4	     446,334	198,7
     42,1173	     446,373	198,6	     445,752	198,7
     42,1202	     445,789	198,4	     445,184	198,8
     42,1232	     445,063	198,7	     444,626	198,9
     42,1261	     444,457	198,9	     443,804	199,0
      42,129	     443,734	198,9	     443,169	199,1
      42,132	     443,296	199,0	     442,598	199,3
     42,1349	     442,366	199,0	     441,974	199,3
