X-Data [Hz]	Piezo (M - Filtered) [mV]	Phase [Deg]	Piezo (M - Filtered) [mV]	Phase [Deg]	
	002: [07-08-24 08:36]		003: [07-08-24 08:41]	
          41	      876,23	78,5	     1029,44	77,2
     41,0029	     954,504	77,7	      1030,6	77,1
     41,0059	     984,954	77,1	     1035,04	77,2
     41,0088	     1005,52	77,3	     1033,74	77,1
     41,0117	     1013,11	76,9	      1039,8	77,0
     41,0147	     1019,36	77,1	      1041,7	77,4
     41,0176	     1026,08	76,9	     1041,66	77,4
     41,0205	     1026,76	77,2	     1045,91	77,2
     41,0235	      1030,9	77,0	      1046,1	77,3
     41,0264	     1033,69	77,0	     1050,05	77,4
     41,0293	     1036,62	77,2	     1050,58	77,5
     41,0323	     1038,44	77,2	      1053,3	77,3
     41,0352	     1040,64	77,1	     1055,31	77,6
     41,0381	     1043,44	77,0	     1058,76	77,4
     41,0411	     1042,91	77,0	     1061,97	77,3
      41,044	      1048,4	77,3	     1063,49	77,5
     41,0469	     1050,21	77,1	     1068,71	77,7
     41,0499	     1050,73	77,2	     1068,52	77,7
     41,0528	      1055,9	77,3	     1070,51	77,5
     41,0557	     1056,08	77,3	     1071,89	77,4
     41,0587	      1059,6	77,3	     1076,47	77,8
     41,0616	      1062,4	77,2	     1077,36	77,9
     41,0645	     1064,69	77,4	      1080,8	77,7
     41,0674	     1065,94	77,5	     1082,54	77,7
     41,0704	     1068,49	77,3	      1086,3	77,9
     41,0733	     1071,09	77,4	     1090,05	77,9
     41,0762	     1074,45	77,5	     1090,14	78,0
     41,0792	     1075,44	77,6	     1096,07	77,7
     41,0821	     1078,55	77,6	     1097,89	78,0
      41,085	     1083,14	77,5	     1098,98	78,0
      41,088	     1082,95	77,5	     1101,06	78,0
     41,0909	      1085,3	77,8	      1103,4	77,8
     41,0938	     1090,35	77,4	      1107,5	78,1
     41,0968	     1090,76	77,6	     1109,45	78,0
     41,0997	     1092,35	77,6	      1112,9	78,1
     41,1026	     1096,49	77,8	     1115,05	77,9
     41,1056	     1098,63	77,9	     1118,84	78,1
     41,1085	     1101,03	77,7	     1119,63	78,3
     41,1114	     1104,38	77,9	     1123,62	78,1
     41,1144	     1106,85	77,8	     1125,77	78,3
     41,1173	     1109,63	78,1	     1128,99	78,3
     41,1202	     1113,81	77,8	     1131,04	78,5
     41,1232	     1113,27	77,8	     1135,18	78,3
     41,1261	     1118,07	77,8	     1138,14	78,1
      41,129	     1120,76	78,1	     1142,09	78,3
      41,132	     1120,74	77,9	     1143,94	78,5
     41,1349	     1126,17	78,0	     1146,68	78,7
     41,1378	     1129,55	78,0	     1149,29	78,5
     41,1408	     1130,29	78,0	     1153,25	78,5
     41,1437	     1134,23	77,9	     1155,65	78,7
     41,1466	     1136,99	77,9	     1156,22	78,6
     41,1496	      1138,6	78,0	     1161,93	78,5
     41,1525	     1139,83	78,3	     1164,88	78,4
     41,1554	     1145,06	78,3	     1167,18	78,4
     41,1584	     1147,45	78,1	     1169,71	78,8
     41,1613	     1152,13	78,1	     1175,09	78,6
     41,1642	     1152,95	78,2	     1176,03	78,7
     41,1672	     1155,67	78,4	     1176,92	78,6
     41,1701	     1157,61	78,5	     1184,53	78,6
      41,173	     1162,95	78,3	     1184,64	78,8
      41,176	     1164,11	78,5	     1187,63	78,6
     41,1789	     1168,96	78,3	     1192,46	78,8
     41,1818	     1169,99	78,7	     1194,42	78,8
     41,1847	     1173,55	78,6	     1200,53	78,9
     41,1877	     1175,81	78,5	     1201,98	79,2
     41,1906	     1180,46	78,5	     1204,81	79,0
     41,1936	     1181,12	78,7	     1208,68	78,9
     41,1965	     1186,39	78,8	     1210,67	78,9
     41,1994	     1189,32	78,4	     1215,92	79,3
     41,2023	     1192,79	78,6	     1218,47	79,2
     41,2053	     1196,21	78,6	     1221,98	79,1
     41,2082	     1198,61	78,9	     1225,61	79,0
     41,2111	     1203,07	78,5	     1228,97	79,2
     41,2141	     1203,41	78,9	     1232,27	79,4
      41,217	     1210,14	78,8	     1236,97	79,2
     41,2199	     1211,14	78,9	     1240,38	79,2
     41,2229	     1213,78	78,9	     1242,62	79,3
     41,2258	     1217,68	78,8	     1246,77	79,5
     41,2287	     1221,89	78,8	     1250,15	79,5
     41,2317	      1224,4	78,9	     1252,89	79,4
     41,2346	     1227,22	79,0	     1258,12	79,5
     41,2375	     1231,38	79,0	     1260,91	79,5
     41,2405	     1233,29	79,0	     1266,39	79,7
     41,2434	     1236,66	78,9	     1268,32	79,9
     41,2463	     1240,35	79,0	     1272,55	79,6
     41,2493	     1245,02	79,3	     1275,43	79,6
     41,2522	     1248,33	79,4	     1280,27	79,8
     41,2551	     1251,54	79,3	     1282,73	80,0
     41,2581	     1253,68	79,2	     1288,49	79,9
      41,261	     1258,43	79,3	     1292,11	80,0
     41,2639	     1262,83	79,6	     1296,22	79,8
     41,2669	     1265,27	79,6	      1299,6	80,1
     41,2698	     1269,96	79,5	     1304,85	80,2
     41,2727	     1272,46	79,4	      1306,9	80,1
     41,2757	     1277,15	79,6	     1313,78	80,1
     41,2786	     1281,14	79,9	     1316,69	80,1
     41,2815	     1285,62	80,0	     1319,32	80,2
     41,2845	     1290,25	79,8	     1324,34	80,4
     41,2874	     1290,23	79,7	     1330,79	80,3
     41,2903	     1297,14	79,9	      1333,5	80,5
     41,2933	     1300,46	79,9	     1334,73	80,4
     41,2962	      1302,1	80,0	     1342,25	80,3
     41,2991	     1308,06	79,9	     1348,57	80,6
     41,3021	     1311,87	79,8	     1350,07	80,6
      41,305	     1316,51	79,9	     1354,83	80,6
     41,3079	     1317,53	80,1	     1358,26	80,5
     41,3109	     1323,68	80,2	      1365,6	80,9
     41,3138	     1326,92	80,2	     1370,76	81,1
     41,3167	     1330,01	80,2	     1374,03	80,9
     41,3196	     1333,47	80,1	     1379,33	80,9
     41,3226	     1341,13	80,2	     1391,31	80,9
     41,3255	     1343,23	80,1	     1390,93	81,5
     41,3284	     1346,31	80,6	      1382,1	81,4
     41,3314	     1350,98	80,5	     1414,15	80,3
     41,3343	     1354,63	80,4	      1476,8	81,2
     41,3372	     1360,94	80,5	     1386,54	84,8
     41,3402	     1366,12	80,4	     1284,37	78,6
     41,3431	     1368,26	80,6	     1825,32	70,0
      41,346	     1372,21	80,7	     2692,76	79,4
      41,349	     1378,08	80,8	     3433,22	92,6
     41,3519	     1381,59	80,5	     4039,32	106,2
     41,3548	     1386,79	80,7	     4369,98	114,9
     41,3578	      1390,6	80,8	     4591,31	121,5
     41,3607	     1393,48	81,0	     4750,08	126,5
     41,3636	     1400,49	81,0	     4889,09	131,4
     41,3666	     1404,23	80,8	     4975,53	134,5
     41,3695	     1409,79	80,9	     5040,29	137,1
     41,3724	     1414,07	80,9	     5089,23	139,4
     41,3754	     1416,58	81,0	     5130,41	141,1
     41,3783	     1421,99	81,2	     5169,41	143,3
     41,3812	     1428,64	81,2	     5196,49	144,6
     41,3842	     1434,27	81,2	     5220,69	145,8
     41,3871	      1439,7	81,1	     5238,22	146,9
       41,39	     1442,05	81,3	     5253,43	147,9
      41,393	     1447,61	81,4	      5269,7	149,3
     41,3959	     1453,52	81,5	     5281,91	150,1
     41,3988	      1458,9	81,7	     5291,63	150,8
     41,4018	     1463,88	81,4	     5299,52	151,5
     41,4047	     1468,78	81,5	     5309,78	152,1
     41,4076	     1474,84	81,5	     5315,97	152,9
     41,4106	     1478,74	81,7	     5320,81	153,5
     41,4135	     1482,29	82,1	     5325,53	154,2
     41,4164	     1492,31	82,0	      5331,3	154,7
     41,4194	     1495,17	81,8	      5334,9	155,3
     41,4223	     1501,18	82,0	     5335,35	155,7
     41,4252	     1508,37	82,1	     5339,55	156,4
     41,4282	     1511,49	82,1	     5342,24	157,2
     41,4311	     1518,11	82,1	     5346,11	157,8
      41,434	     1525,56	82,3	     5347,73	158,1
      41,437	     1532,63	82,2	     5347,66	158,7
     41,4399	     1534,18	82,3	     5349,83	159,0
     41,4428	      1541,7	82,3	     5349,56	159,2
     41,4457	     1549,18	82,4	     5348,34	159,6
     41,4487	     1555,33	82,6	     5349,02	160,1
     41,4516	     1561,89	82,8	     5347,12	160,6
     41,4545	     1566,86	82,8	      5348,7	161,1
     41,4575	     1573,34	82,9	     5347,99	161,4
     41,4604	     1580,79	82,8	      5348,6	161,5
     41,4633	     1588,28	82,7	     5347,14	162,0
     41,4663	     1592,51	82,9	     5346,63	162,3
     41,4692	     1599,78	83,0	     5344,54	163,0
     41,4721	     1606,56	83,1	     5343,32	163,2
     41,4751	     1613,08	83,1	     5341,29	163,4
      41,478	     1620,37	83,2	     5337,28	163,8
     41,4809	     1626,29	83,1	     5336,81	164,0
     41,4839	     1630,94	83,4	     5334,88	164,4
     41,4868	     1642,36	83,6	     5332,87	164,8
     41,4897	     1649,28	83,6	     5332,01	165,0
     41,4927	     1655,92	83,6	     5328,79	165,5
     41,4956	     1661,59	83,9	     5326,34	165,6
     41,4985	     1668,83	84,0	     5323,21	165,9
     41,5015	     1679,19	83,8	     5322,79	166,1
     41,5044	     1686,83	84,0	     5320,12	166,4
     41,5073	     1693,39	84,0	     5316,36	167,0
     41,5103	        1703	84,3	     5314,26	167,2
     41,5132	     1709,82	84,4	     5313,37	167,5
     41,5161	     1717,55	84,4	     5307,62	167,6
     41,5191	     1724,49	84,7	     5305,35	167,9
      41,522	     1735,96	84,4	      5301,3	168,2
     41,5249	     1742,63	84,5	     5298,88	168,5
     41,5279	     1751,67	84,7	     5297,46	168,6
     41,5308	     1761,07	84,8	     5293,93	169,1
     41,5337	     1771,46	85,1	     5290,21	169,4
     41,5367	      1777,7	85,2	     5287,09	169,7
     41,5396	      1788,4	85,3	     5285,42	169,9
     41,5425	     1797,48	85,5	     5280,93	169,9
     41,5455	     1807,02	85,5	     5277,55	170,2
     41,5484	     1816,87	85,6	     5271,81	170,3
     41,5513	      1827,8	85,5	     5266,95	170,6
     41,5543	     1839,08	85,7	     5262,49	170,9
     41,5572	     1848,63	85,7	     5260,64	171,2
     41,5601	     1858,05	86,0	     5257,71	171,6
      41,563	     1869,76	86,2	     5255,65	171,9
      41,566	     1880,56	86,3	     5254,06	171,9
     41,5689	     1894,01	86,5	     5249,05	172,0
     41,5718	     1904,18	86,6	     5242,23	172,2
     41,5748	     1915,24	86,7	     5237,07	172,5
     41,5777	     1930,46	86,8	     5233,89	172,7
     41,5806	     1942,96	86,9	     5228,33	173,0
     41,5836	     1953,61	87,1	     5226,85	173,2
     41,5865	     1962,63	87,2	      5221,1	173,5
     41,5894	     1977,42	87,6	      5215,7	173,5
     41,5924	     1992,86	87,7	     5214,46	173,7
     41,5953	     2006,56	87,7	     5210,79	174,1
     41,5982	     2019,85	87,9	     5207,45	174,3
     41,6012	     2033,82	88,1	     5201,47	174,5
     41,6041	     2050,15	88,1	        5197	174,5
      41,607	     2066,09	88,3	      5192,5	174,7
       41,61	     2079,01	88,5	     5185,26	174,9
     41,6129	     2095,62	88,8	     5180,92	175,2
     41,6158	     2114,15	89,0	     5177,75	175,3
     41,6188	     2134,99	89,4	      5172,3	175,5
     41,6217	     2151,52	89,4	     5171,11	175,8
     41,6246	     2168,59	89,9	     5167,56	176,0
     41,6276	     2189,68	90,1	     5161,96	176,2
     41,6305	     2212,61	90,2	     5156,77	176,4
     41,6334	     2233,29	90,4	     5153,87	176,8
     41,6364	     2254,39	90,9	      5148,5	176,9
     41,6393	     2277,86	91,1	     5142,98	177,1
     41,6422	     2299,83	91,3	     5138,73	177,1
     41,6452	     2328,28	92,0	     5133,36	177,3
     41,6481	     2354,56	92,3	     5126,27	177,4
      41,651	     2381,71	92,6	     5124,57	177,7
      41,654	     2417,56	93,0	     5120,26	177,9
     41,6569	     2448,51	93,6	     5116,11	178,1
     41,6598	     2484,41	94,1	     5110,52	178,4
     41,6628	     2521,88	94,3	     5104,09	178,6
     41,6657	     2569,12	95,1	     5099,71	178,7
     41,6686	     2611,74	95,8	     5096,71	178,8
     41,6716	     2662,17	96,7	     5090,81	178,8
     41,6745	     2716,47	97,4	     5085,54	179,1
     41,6774	     2787,68	98,8	     5082,05	179,2
     41,6804	        2857	100,0	     5075,91	179,4
     41,6833	      2937,3	101,5	     5070,81	179,6
     41,6862	     3033,73	103,1	     5066,91	180,1
     41,6891	     3140,05	105,4	     5064,44	180,3
     41,6921	     3297,52	108,3	     5058,41	180,4
      41,695	     3456,43	111,8	     5051,99	180,7
     41,6979	     3646,66	116,2	     5048,17	180,7
     41,7009	     3869,65	122,2	     5042,04	180,6
     41,7038	     4200,59	131,8	     5037,85	180,8
     41,7067	     4516,16	142,0	     5034,38	181,1
     41,7097	      4838,4	154,0	     5027,94	181,4
     41,7126	     5065,36	166,4	     5022,02	181,4
     41,7155	     5181,54	176,0	      5016,8	181,5
     41,7185	     5165,08	182,5	     5011,36	181,9
     41,7214	     5105,45	183,9	     5007,99	182,0
     41,7243	     5052,48	183,3	     5002,56	182,1
     41,7273	     5026,58	182,5	      4997,9	182,3
     41,7302	     5018,48	181,9	     4993,41	182,4
     41,7331	     5016,77	181,5	     4988,66	182,6
     41,7361	     5015,31	181,8	     4983,17	182,6
      41,739	     5012,71	182,1	     4977,16	182,8
     41,7419	     5006,16	182,3	     4972,89	183,0
     41,7449	     5001,03	182,5	     4967,69	183,1
     41,7478	     4998,76	182,7	     4960,92	183,3
     41,7507	     4990,39	183,0	     4956,74	183,6
     41,7537	     4982,68	183,1	     4951,36	183,7
     41,7566	     4974,17	183,3	     4946,31	183,9
     41,7595	      4971,2	183,2	     4939,48	183,9
     41,7625	     4965,27	183,6	      4935,2	184,3
     41,7654	     4959,76	183,8	     4931,22	184,1
     41,7683	     4953,62	184,0	     4924,67	184,5
     41,7713	     4948,44	184,1	     4920,48	184,6
     41,7742	     4940,53	184,2	     4914,66	184,8
     41,7771	     4935,06	184,2	     4909,83	184,7
     41,7801	     4930,25	184,3	     4904,05	185,0
      41,783	     4925,56	184,5	     4898,79	185,1
     41,7859	     4920,44	184,8	     4894,11	185,2
     41,7889	     4915,07	184,9	     4890,06	185,5
     41,7918	     4907,35	185,0	     4883,58	185,7
     41,7947	     4901,93	185,3	     4878,86	185,8
     41,7977	     4894,49	185,3	     4873,38	185,7
     41,8006	     4888,97	185,4	     4865,47	186,3
     41,8035	     4884,26	185,5	     4860,88	186,3
     41,8064	     4877,71	186,0	     4856,59	186,5
     41,8094	     4872,75	185,9	     4851,07	186,7
     41,8123	     4866,12	186,0	     4844,84	186,9
     41,8153	     4859,86	186,3	     4840,14	186,7
     41,8182	     4855,07	186,6	     4832,32	186,9
     41,8211	     4850,67	186,7	     4827,67	187,2
      41,824	     4843,49	186,9	      4824,1	187,3
      41,827	     4838,42	186,9	     4818,43	187,3
     41,8299	     4830,05	186,9	     4811,91	187,4
     41,8328	     4824,66	187,3	      4805,1	187,6
     41,8358	     4819,52	187,3	     4801,89	187,7
     41,8387	     4816,01	187,6	     4797,08	187,8
     41,8416	     4807,97	187,5	     4788,44	188,1
     41,8446	     4801,62	187,6	     4783,92	188,4
     41,8475	     4796,18	187,8	     4777,17	188,4
     41,8504	     4790,75	187,9	     4774,09	188,6
     41,8534	     4785,34	188,1	      4770,6	188,6
     41,8563	     4777,75	188,3	     4762,95	188,8
     41,8592	     4771,44	188,3	        4754	189,0
     41,8622	     4766,04	188,4	     4750,79	189,2
     41,8651	     4760,88	188,6	     4745,45	189,3
      41,868	     4755,51	188,6	      4739,4	189,3
      41,871	     4748,54	188,8	     4734,01	189,6
     41,8739	     4742,77	189,2	     4727,99	189,5
     41,8768	     4738,85	189,2	     4722,58	189,7
     41,8798	     4730,96	189,3	     4719,25	189,9
     41,8827	     4725,49	189,6	     4714,21	190,0
     41,8856	     4719,63	189,7	     4705,49	190,0
     41,8886	     4714,33	189,9	     4701,07	190,2
     41,8915	     4708,91	189,9	     4694,79	190,3
     41,8944	     4704,51	190,1	     4688,33	190,2
     41,8974	     4696,62	190,4	     4683,36	190,5
     41,9003	     4688,77	190,5	     4679,44	190,7
     41,9032	     4683,79	190,5	     4673,77	190,7
     41,9062	     4677,21	190,7	     4667,05	190,9
     41,9091	     4672,64	190,8	     4659,24	191,1
      41,912	     4667,08	191,1	      4654,4	191,1
      41,915	     4658,84	191,1	     4649,82	191,3
     41,9179	     4652,94	191,2	     4645,65	191,4
     41,9208	     4648,64	191,2	     4640,86	191,8
     41,9238	     4642,58	191,4	     4633,57	191,8
     41,9267	      4634,3	191,6	      4626,6	192,0
     41,9296	     4629,93	191,6	     4620,99	192,1
     41,9326	     4624,71	191,9	     4614,32	192,3
     41,9355	     4617,63	192,0	     4609,48	192,4
     41,9384	      4612,4	192,0	     4604,25	192,5
     41,9413	     4604,73	192,2	     4598,91	192,6
     41,9443	     4598,65	192,4	     4595,02	192,9
     41,9472	     4593,43	192,3	     4589,66	192,8
     41,9501	     4586,17	192,4	     4581,33	192,9
     41,9531	     4580,02	192,6	     4574,88	193,1
      41,956	     4577,52	192,8	     4570,66	193,2
     41,9589	     4570,14	193,1	     4564,53	193,4
     41,9619	     4562,61	193,0	     4556,71	193,3
     41,9648	     4555,88	193,1	      4551,1	193,5
     41,9677	      4551,6	193,3	     4547,04	193,5
     41,9707	      4546,1	193,5	     4540,54	193,8
     41,9736	     4541,35	193,7	     4534,63	193,9
     41,9765	     4532,45	193,7	     4528,33	194,2
     41,9795	     4525,42	193,6	      4522,4	194,1
     41,9824	     4520,44	193,9	     4517,04	194,2
     41,9853	     4514,67	194,2	     4512,69	194,3
     41,9883	     4509,55	194,1	     4506,41	194,5
     41,9912	      4505,1	194,4	     4500,09	194,5
     41,9941	     4496,49	194,3	     4495,27	194,5
     41,9971	     4489,25	194,4	     4488,08	194,9
          42	     4486,05	194,6	     4485,25	194,9
     42,0029	     4477,43	194,7	     4478,88	195,2
     42,0059	     4473,84	194,8	     4472,18	195,0
     42,0088	      4468,1	195,1	     4466,49	195,3
     42,0117	     4459,12	195,2	     4459,04	195,3
     42,0147	     4455,15	195,3	     4451,51	195,5
     42,0176	     4448,49	195,2	     4448,79	195,7
     42,0205	     4441,59	195,5	     4444,32	195,7
     42,0235	     4436,53	195,5	     4437,81	195,9
     42,0264	     4430,05	195,7	     4431,71	196,0
     42,0293	     4424,12	195,9	     4425,42	196,1
     42,0323	     4419,58	196,0	     4418,55	196,1
     42,0352	     4412,53	196,0	     4414,12	196,2
     42,0381	     4402,94	196,1	      4408,1	196,5
     42,0411	     4398,48	196,2	      4400,4	196,6
      42,044	     4391,63	196,4	     4395,37	196,5
     42,0469	      4388,3	196,5	     4387,83	196,9
     42,0499	     4383,01	196,7	     4384,72	196,9
     42,0528	      4376,1	196,8	     4379,25	197,0
     42,0557	     4370,84	197,0	     4371,33	197,1
     42,0587	     4362,66	197,0	     4364,93	197,1
     42,0616	     4355,16	197,2	     4360,18	197,3
     42,0645	      4350,1	197,4	     4352,53	197,4
     42,0674	     4344,59	197,4	      4348,7	197,6
     42,0704	      4339,7	197,4	     4343,07	197,6
     42,0733	     4334,73	197,4	     4335,55	197,7
     42,0762	     4327,76	197,8	      4331,3	197,9
     42,0792	     4319,63	197,7	     4324,34	198,2
     42,0821	     4314,19	197,9	      4318,8	198,1
      42,085	     4307,79	198,1	     4313,44	198,2
      42,088	     4301,91	198,0	     4306,29	198,4
     42,0909	      4295,2	198,1	     4302,75	198,4
     42,0938	     4289,92	198,1	     4296,95	198,7
     42,0968	     4283,58	198,3	     4290,94	198,6
     42,0997	     4276,74	198,5	     4284,98	198,7
     42,1026	     4272,43	198,4	     4277,02	198,8
     42,1056	     4265,99	198,6	     4272,14	199,1
     42,1085	     4258,52	198,7	     4267,73	199,2
     42,1114	     4252,45	198,7	     4262,12	199,2
     42,1144	     4247,28	199,0	     4254,67	199,4
     42,1173	     4242,34	199,0	     4248,84	199,5
     42,1202	     4235,37	199,2	     4243,71	199,9
     42,1232	     4228,45	199,3	     4235,34	199,7
     42,1261	     4222,96	199,4	     4230,94	199,9
      42,129	     4216,19	199,5	     4224,29	-160,0
      42,132	     4211,53	199,7	     4220,77	-159,8
     42,1349	     4203,65	199,6	     4213,32	-159,8
