X-Data [Hz]	Piezo (M - Filtered) [mV]	Phase [Deg]	Piezo (M - Filtered) [mV]	Phase [Deg]	
	002: [07-09-24 14:35]		003: [07-09-24 14:39]	
        40,5	     1093,48	-100,5	     1215,72	-101,6
     40,5029	     1148,84	-101,1	     1220,09	-101,2
     40,5059	     1190,33	-101,1	     1221,36	-101,3
     40,5088	     1202,29	-101,0	     1226,26	-101,3
     40,5117	     1212,94	-100,9	     1221,56	-101,3
     40,5147	     1216,49	-101,3	      1230,7	-101,6
     40,5176	     1220,92	-101,4	     1227,79	-101,5
     40,5205	     1226,02	-101,1	     1234,56	-101,1
     40,5235	     1226,99	-101,5	     1231,34	-101,5
     40,5264	     1229,68	-100,9	     1236,58	-101,0
     40,5293	     1231,46	-100,9	     1236,62	-101,4
     40,5323	     1232,63	-100,8	     1242,54	-101,3
     40,5352	      1236,6	-101,1	     1239,79	-101,2
     40,5381	     1236,92	-101,2	     1246,05	-101,3
     40,5411	     1240,85	-100,9	     1246,33	-101,4
      40,544	     1240,62	-101,3	     1247,59	-100,8
     40,5469	     1243,45	-101,2	     1249,19	-101,3
     40,5499	      1245,9	-100,9	     1255,43	-101,1
     40,5528	     1247,51	-101,4	     1253,95	-100,9
     40,5557	     1248,31	-101,1	      1258,6	-101,1
     40,5587	     1254,85	-100,8	     1258,62	-100,7
     40,5616	     1256,89	-101,0	     1261,87	-101,1
     40,5645	     1255,23	-101,1	     1265,37	-100,9
     40,5674	        1261	-100,6	     1265,09	-100,6
     40,5704	      1261,5	-101,2	     1270,14	-100,7
     40,5733	     1262,91	-100,9	     1269,78	-100,4
     40,5762	      1268,2	-100,6	     1273,12	-100,7
     40,5792	     1266,79	-101,0	     1275,23	-100,9
     40,5821	     1271,83	-101,1	     1277,65	-101,2
      40,585	     1272,54	-101,1	     1278,03	-100,8
      40,588	     1273,06	-101,1	     1282,28	-101,0
     40,5909	     1276,54	-100,8	     1284,19	-100,4
     40,5938	     1278,23	-100,5	     1285,99	-100,5
     40,5968	     1283,45	-101,0	     1289,62	-100,7
     40,5997	     1282,62	-100,6	     1292,28	-100,7
     40,6026	     1289,82	-101,1	     1294,76	-100,6
     40,6056	     1283,96	-100,9	     1293,74	-100,6
     40,6085	     1292,64	-100,4	     1301,59	-100,4
     40,6114	     1292,35	-101,1	     1298,28	-100,3
     40,6144	     1294,91	-100,7	     1303,63	-100,4
     40,6173	     1298,77	-100,8	     1304,79	-100,1
     40,6202	     1298,99	-100,9	     1306,83	-100,7
     40,6232	     1302,69	-100,7	     1306,69	-100,4
     40,6261	     1306,24	-101,0	      1316,2	-100,3
      40,629	     1306,09	-100,9	     1315,58	-100,4
      40,632	     1308,57	-100,6	     1315,52	-100,5
     40,6349	     1312,21	-100,6	     1320,98	-100,0
     40,6378	     1311,05	-100,6	      1321,9	-100,5
     40,6408	     1316,75	-100,5	     1325,39	-100,2
     40,6437	     1318,59	-100,9	     1323,52	-100,1
     40,6466	     1318,57	-100,6	     1331,38	-100,4
     40,6496	     1323,48	-100,4	     1331,17	-100,0
     40,6525	     1325,17	-100,3	     1334,91	-100,3
     40,6554	      1326,9	-100,4	     1337,29	-100,2
     40,6584	     1330,99	-100,4	     1339,15	-100,0
     40,6613	     1333,83	-100,4	     1340,21	-100,0
     40,6642	     1334,95	-100,2	      1343,4	-100,2
     40,6672	     1339,76	-100,3	     1346,47	-99,8
     40,6701	     1340,36	-100,5	     1350,33	-100,1
      40,673	     1341,86	-100,4	     1348,58	-100,3
      40,676	      1345,7	-100,0	     1358,48	-100,3
     40,6789	     1344,63	-100,1	     1356,74	-100,1
     40,6818	     1350,82	-100,4	     1359,79	-100,1
     40,6847	     1353,02	-100,1	     1363,16	-100,0
     40,6877	      1356,3	-100,2	     1365,33	-99,9
     40,6906	     1357,29	-100,2	     1366,59	-99,8
     40,6936	     1360,93	-100,4	     1372,12	-100,0
     40,6965	     1365,92	-100,3	     1371,89	-100,0
     40,6994	     1364,29	-100,1	     1377,23	-100,1
     40,7023	     1367,36	-99,6	     1376,52	-99,6
     40,7053	     1369,23	-99,9	     1380,93	-100,0
     40,7082	     1373,58	-99,9	     1383,65	-100,3
     40,7111	     1374,37	-99,6	     1385,89	-100,2
     40,7141	     1381,48	-99,9	     1388,68	-100,0
      40,717	     1380,32	-100,1	      1391,9	-100,2
     40,7199	      1386,5	-99,7	     1393,27	-99,7
     40,7229	     1385,73	-100,0	     1396,76	-99,9
     40,7258	     1388,26	-99,6	     1400,81	-100,1
     40,7287	     1391,79	-99,6	     1401,27	-99,8
     40,7317	     1395,02	-100,1	     1404,46	-99,8
     40,7346	      1397,2	-99,8	     1406,26	-99,9
     40,7375	     1400,78	-99,8	     1412,93	-99,5
     40,7405	     1401,46	-99,7	     1413,11	-99,7
     40,7434	     1408,59	-99,9	     1416,29	-99,8
     40,7463	     1407,89	-99,6	     1418,93	-99,5
     40,7493	     1411,43	-99,5	     1424,43	-99,6
     40,7522	      1411,7	-100,1	     1426,79	-100,0
     40,7551	     1412,95	-99,8	      1429,6	-99,4
     40,7581	     1420,57	-99,7	     1429,27	-99,2
      40,761	     1422,98	-99,6	     1436,57	-99,7
     40,7639	     1427,27	-99,6	     1435,12	-99,2
     40,7669	     1427,82	-99,5	     1439,44	-99,2
     40,7698	     1432,19	-99,8	     1441,07	-99,3
     40,7727	     1434,43	-99,6	     1443,33	-99,3
     40,7757	     1436,03	-99,5	     1447,72	-99,4
     40,7786	     1438,99	-99,6	     1449,29	-99,3
     40,7815	     1444,05	-99,4	     1455,84	-99,5
     40,7845	     1445,22	-99,6	     1458,15	-99,2
     40,7874	     1449,25	-99,7	     1459,45	-99,2
     40,7903	     1451,85	-99,4	     1461,82	-99,6
     40,7933	     1452,14	-99,0	     1467,34	-98,9
     40,7962	     1456,49	-99,0	     1468,79	-99,2
     40,7991	     1460,38	-99,4	     1473,35	-99,5
     40,8021	     1462,83	-99,1	     1476,72	-99,4
      40,805	     1467,06	-99,0	     1476,35	-99,0
     40,8079	     1469,87	-99,3	      1482,7	-99,4
     40,8109	     1469,94	-98,9	     1484,02	-99,4
     40,8138	     1475,63	-99,1	     1485,53	-99,0
     40,8167	     1479,85	-99,2	     1489,95	-98,8
     40,8196	     1484,21	-99,3	      1495,6	-99,3
     40,8226	     1483,96	-98,9	     1499,27	-98,9
     40,8255	     1488,56	-99,2	     1498,07	-98,5
     40,8284	     1490,04	-99,4	     1502,37	-98,8
     40,8314	     1496,09	-99,0	     1506,89	-98,8
     40,8343	     1496,31	-99,0	     1512,67	-98,7
     40,8372	     1500,73	-99,0	     1513,65	-98,8
     40,8402	     1502,38	-99,1	     1516,69	-98,8
     40,8431	      1505,9	-99,0	     1521,39	-98,5
      40,846	     1511,21	-99,1	     1520,59	-98,6
      40,849	     1512,91	-99,1	     1524,84	-99,1
     40,8519	     1514,86	-98,9	     1529,44	-98,8
     40,8548	     1516,92	-98,9	     1531,87	-98,7
     40,8578	     1523,46	-98,7	     1537,56	-98,9
     40,8607	     1528,51	-98,7	     1536,85	-98,7
     40,8636	     1529,61	-98,7	     1543,94	-98,7
     40,8666	      1532,4	-98,7	     1547,39	-98,4
     40,8695	     1536,36	-98,7	     1546,57	-98,6
     40,8724	      1538,1	-98,4	     1552,31	-98,4
     40,8754	     1543,85	-98,7	     1556,49	-98,4
     40,8783	     1547,07	-98,6	     1558,93	-98,4
     40,8812	     1550,11	-98,5	     1563,29	-98,3
     40,8842	     1553,47	-98,6	     1565,99	-98,4
     40,8871	     1556,33	-98,6	     1570,03	-98,3
       40,89	     1561,14	-98,7	     1573,48	-98,4
      40,893	     1564,45	-98,4	     1575,07	-97,9
     40,8959	     1566,77	-98,6	     1579,89	-98,1
     40,8988	     1568,94	-98,4	     1588,57	-98,5
     40,9018	      1575,4	-98,2	     1584,06	-98,2
     40,9047	     1575,19	-98,1	     1589,84	-98,4
     40,9076	     1582,57	-98,3	     1599,24	-98,4
     40,9106	     1583,33	-97,9	     1598,88	-98,2
     40,9135	      1589,1	-98,0	     1602,49	-98,2
     40,9164	     1591,44	-98,2	     1607,87	-98,1
     40,9194	     1593,93	-98,5	     1610,67	-98,0
     40,9223	     1597,68	-98,1	     1612,18	-98,1
     40,9252	     1605,43	-98,2	     1616,56	-97,8
     40,9282	     1605,31	-98,4	     1621,81	-97,9
     40,9311	     1608,04	-98,3	     1624,49	-98,0
      40,934	     1614,54	-98,0	      1628,6	-98,0
      40,937	     1616,53	-98,0	     1634,31	-97,7
     40,9399	     1621,29	-98,1	     1635,33	-97,8
     40,9428	     1627,97	-97,9	     1641,43	-98,0
     40,9457	      1626,8	-97,9	     1643,76	-97,8
     40,9487	     1627,99	-98,0	     1649,04	-97,4
     40,9516	     1635,81	-97,8	     1652,56	-98,1
     40,9545	     1638,26	-97,7	     1656,22	-97,7
     40,9575	     1642,66	-97,6	     1658,21	-97,5
     40,9604	     1647,51	-97,8	     1662,89	-97,6
     40,9633	     1651,11	-97,5	     1672,19	-97,7
     40,9663	     1654,87	-97,8	     1670,64	-97,2
     40,9692	     1659,72	-97,7	     1672,88	-97,3
     40,9721	     1664,95	-97,8	     1681,01	-97,5
     40,9751	     1664,01	-97,7	     1681,34	-97,7
      40,978	     1672,82	-97,4	     1687,56	-97,1
     40,9809	     1674,44	-97,4	     1690,55	-97,3
     40,9839	     1676,88	-97,3	     1695,91	-97,6
     40,9868	     1682,53	-97,2	     1701,23	-97,3
     40,9897	     1689,08	-97,3	     1703,06	-97,2
     40,9927	     1690,86	-97,5	     1708,47	-97,4
     40,9956	     1693,67	-97,5	     1715,57	-97,3
     40,9985	     1700,37	-97,2	     1717,79	-97,0
     41,0015	     1705,85	-97,5	      1721,3	-97,1
     41,0044	     1710,23	-97,6	     1726,24	-96,8
     41,0073	     1712,52	-97,5	     1729,05	-97,1
     41,0103	     1715,57	-97,2	      1734,7	-97,1
     41,0132	     1721,18	-97,5	     1740,04	-96,9
     41,0161	     1725,97	-97,3	     1740,72	-97,0
     41,0191	     1727,24	-96,8	      1750,9	-97,0
      41,022	     1734,96	-96,7	      1753,8	-96,8
     41,0249	     1739,07	-96,8	     1757,02	-96,5
     41,0279	     1745,36	-97,2	     1760,19	-96,6
     41,0308	     1746,68	-96,5	     1767,34	-96,8
     41,0337	     1753,65	-96,8	     1772,69	-96,8
     41,0367	     1757,67	-97,0	      1774,7	-96,4
     41,0396	     1759,99	-96,9	     1778,51	-96,7
     41,0425	     1766,16	-96,7	     1786,45	-96,9
     41,0455	     1768,36	-96,7	     1786,83	-96,8
     41,0484	     1773,96	-96,7	     1793,67	-96,4
     41,0513	     1784,24	-96,8	      1801,7	-96,9
     41,0543	     1781,21	-96,8	     1806,63	-96,5
     41,0572	     1788,84	-96,5	     1806,73	-96,3
     41,0601	     1792,25	-96,7	     1810,71	-96,1
      41,063	     1799,16	-96,8	     1818,35	-96,3
      41,066	     1801,01	-96,7	     1824,53	-96,4
     41,0689	      1805,7	-96,6	     1828,86	-96,5
     41,0718	      1814,4	-96,6	     1832,79	-96,4
     41,0748	     1818,24	-96,4	     1836,81	-95,8
     41,0777	     1820,16	-96,2	     1844,31	-96,4
     41,0806	     1822,96	-95,8	     1850,69	-96,0
     41,0836	     1832,35	-96,1	      1849,3	-95,7
     41,0865	     1835,64	-96,1	     1857,42	-95,9
     41,0894	     1839,68	-96,1	     1864,97	-95,8
     41,0924	      1843,3	-96,1	     1864,62	-96,1
     41,0953	     1847,47	-95,8	     1874,44	-96,0
     41,0982	     1854,28	-96,3	     1877,97	-95,6
     41,1012	        1859	-96,0	     1888,28	-96,1
     41,1041	     1865,26	-95,7	     1890,93	-95,6
      41,107	     1868,81	-96,1	     1893,37	-95,6
       41,11	     1870,55	-96,0	     1897,78	-95,3
     41,1129	     1881,58	-95,9	     1905,36	-95,3
     41,1158	     1884,86	-95,6	     1912,09	-95,4
     41,1188	     1891,81	-95,9	      1916,3	-95,2
     41,1217	     1896,26	-96,0	     1921,51	-95,4
     41,1246	     1900,45	-95,9	     1929,79	-95,4
     41,1276	     1902,75	-95,5	     1933,58	-95,2
     41,1305	     1910,68	-95,2	     1938,22	-95,1
     41,1334	     1918,34	-95,4	     1947,05	-94,8
     41,1364	     1922,87	-95,4	     1947,23	-94,9
     41,1393	     1927,55	-95,3	     1954,41	-95,2
     41,1422	     1933,53	-95,4	     1962,78	-95,4
     41,1452	     1939,95	-95,2	     1967,54	-95,1
     41,1481	      1946,7	-95,6	     1973,32	-94,9
      41,151	     1950,51	-94,5	     1980,63	-94,9
      41,154	      1957,7	-96,0	     1985,18	-94,6
     41,1569	     1962,37	-95,2	     1989,05	-94,6
     41,1598	     1965,04	-94,8	     1997,38	-94,5
     41,1628	     1973,22	-94,8	      2006,7	-94,6
     41,1657	     1978,11	-94,8	     2009,43	-94,7
     41,1686	     1984,91	-94,8	     2015,35	-94,7
     41,1716	     1993,19	-95,0	     2022,19	-94,8
     41,1745	     1996,59	-94,9	     2030,68	-94,2
     41,1774	     2003,66	-94,6	     2035,76	-94,1
     41,1804	     2009,49	-94,3	     2042,32	-94,3
     41,1833	     2013,72	-94,6	     2047,82	-94,1
     41,1862	     2019,52	-94,5	     2051,59	-94,3
     41,1891	     2030,83	-94,8	     2061,06	-94,2
     41,1921	     2031,91	-94,7	      2068,1	-94,5
      41,195	     2039,61	-94,3	     2073,58	-94,3
     41,1979	     2048,52	-94,3	     2079,61	-94,1
     41,2009	     2050,86	-94,6	     2086,36	-94,0
     41,2038	     2058,64	-94,3	     2094,52	-93,9
     41,2067	     2066,17	-94,4	     2100,04	-93,9
     41,2097	     2070,86	-94,3	     2108,89	-94,0
     41,2126	     2078,48	-94,4	     2115,49	-94,0
     41,2155	     2088,57	-94,2	     2119,79	-93,7
     41,2185	     2092,71	-94,0	     2132,21	-93,8
     41,2214	     2102,09	-93,9	     2140,13	-93,5
     41,2243	     2104,83	-93,6	     2144,96	-93,6
     41,2273	     2111,72	-93,9	     2147,32	-93,6
     41,2302	     2116,82	-94,1	     2158,47	-93,5
     41,2331	     2128,11	-93,9	     2166,75	-93,6
     41,2361	     2138,08	-93,8	      2173,8	-93,5
      41,239	     2135,51	-93,4	     2183,53	-93,3
     41,2419	     2143,18	-93,1	      2187,6	-93,1
     41,2449	     2154,48	-93,5	     2196,32	-93,0
     41,2478	     2165,78	-93,6	     2202,36	-92,9
     41,2507	     2170,48	-93,6	     2213,02	-93,3
     41,2537	     2175,44	-93,4	     2220,53	-92,9
     41,2566	     2179,82	-92,9	     2223,27	-92,9
     41,2595	     2194,79	-93,2	     2231,75	-92,8
     41,2625	     2196,92	-93,3	     2241,47	-92,4
     41,2654	     2205,21	-93,0	     2248,59	-92,8
     41,2683	     2211,53	-93,1	     2258,61	-93,0
     41,2713	     2220,97	-92,9	     2266,33	-92,7
     41,2742	     2229,14	-92,7	     2276,07	-92,3
     41,2771	     2234,06	-92,9	     2279,32	-91,9
     41,2801	     2241,37	-92,5	     2288,28	-92,3
      41,283	     2252,36	-92,8	     2302,19	-92,4
     41,2859	     2259,59	-92,8	     2310,09	-92,5
     41,2889	     2271,32	-92,7	     2315,64	-92,0
     41,2918	     2280,31	-92,8	     2323,97	-92,0
     41,2947	     2282,75	-92,4	     2335,54	-91,6
     41,2977	     2293,31	-92,4	     2344,19	-91,7
     41,3006	     2303,34	-92,1	     2349,64	-91,9
     41,3035	      2309,5	-92,3	     2363,85	-91,6
     41,3064	     2316,69	-92,4	     2370,29	-91,4
     41,3094	     2324,96	-92,2	     2380,59	-91,2
     41,3123	     2335,71	-91,9	     2384,83	-91,2
     41,3153	     2342,83	-91,7	      2399,8	-91,3
     41,3182	     2352,19	-91,7	      2410,5	-91,3
     41,3211	     2362,27	-91,8	     2423,34	-91,4
      41,324	     2369,65	-91,7	     2429,02	-91,1
      41,327	     2379,58	-91,7	     2438,81	-91,2
     41,3299	     2389,91	-91,4	     2451,56	-91,0
     41,3328	     2396,48	-91,6	     2459,98	-90,8
     41,3358	     2407,85	-91,4	     2469,35	-91,0
     41,3387	     2418,07	-91,3	     2480,37	-90,7
     41,3416	     2432,83	-91,5	     2488,61	-90,6
     41,3446	     2437,57	-91,2	     2501,21	-90,2
     41,3475	     2442,52	-90,8	     2514,31	-90,3
     41,3504	     2453,74	-90,6	     2522,07	-90,2
     41,3534	     2468,26	-91,1	     2534,55	-89,9
     41,3563	     2479,42	-90,7	     2544,08	-90,0
     41,3592	     2488,22	-90,8	     2555,79	-89,8
     41,3622	     2495,02	-90,7	     2566,81	-90,2
     41,3651	     2506,03	-90,2	     2580,89	-89,7
      41,368	     2521,03	-90,4	     2588,67	-89,7
      41,371	     2531,02	-90,3	     2601,59	-89,2
     41,3739	     2547,09	-90,4	     2613,54	-89,5
     41,3768	     2567,37	-90,1	     2624,17	-89,3
     41,3798	      2577,9	-90,1	     2641,59	-89,1
     41,3827	     2583,13	-90,1	     2649,67	-89,2
     41,3856	     2589,49	-90,0	     2664,53	-88,7
     41,3886	     2603,29	-89,9	     2677,67	-88,8
     41,3915	     2614,51	-89,7	     2689,64	-88,6
     41,3944	     2626,83	-89,6	     2698,84	-88,4
     41,3974	     2632,65	-89,6	     2715,42	-88,4
     41,4003	     2644,35	-89,1	     2728,48	-88,6
     41,4032	     2659,14	-89,1	     2743,03	-88,7
     41,4062	     2670,36	-89,0	      2755,3	-88,3
     41,4091	     2683,52	-88,7	     2775,14	-88,0
      41,412	     2696,34	-88,9	     2787,91	-87,7
      41,415	     2710,84	-88,7	     2798,61	-87,7
     41,4179	     2723,95	-88,8	     2810,37	-87,9
     41,4208	     2734,67	-88,4	     2835,51	-87,6
     41,4238	     2744,31	-88,0	     2848,87	-87,1
     41,4267	     2758,55	-88,1	     2862,56	-86,8
     41,4296	     2770,46	-88,1	     2876,73	-86,9
     41,4326	     2789,62	-88,2	     2892,58	-86,9
     41,4355	      2805,6	-88,0	     2916,75	-87,1
     41,4384	     2817,88	-87,6	     2932,88	-86,7
     41,4413	     2828,19	-88,1	     2946,75	-86,4
     41,4443	     2842,26	-87,4	     2966,98	-86,4
     41,4472	     2857,58	-87,4	     2985,73	-86,0
     41,4501	     2873,18	-87,3	     3004,27	-85,9
     41,4531	     2891,43	-87,0	     3023,11	-85,5
      41,456	     2905,59	-86,7	     3038,07	-85,5
     41,4589	     2922,92	-86,7	     3058,58	-85,6
     41,4619	     2939,84	-86,7	     3083,57	-85,1
     41,4648	     2953,77	-86,4	     3105,16	-84,9
     41,4677	     2964,34	-86,0	     3130,11	-84,4
     41,4707	     2987,05	-86,1	     3151,73	-84,2
     41,4736	     3007,83	-86,2	     3180,56	-84,2
     41,4765	     3023,98	-86,1	     3204,23	-84,3
     41,4795	     3043,52	-85,7	      3231,9	-84,1
     41,4824	     3061,52	-85,3	     3263,04	-83,5
     41,4853	     3078,84	-85,0	     3304,93	-83,5
     41,4883	     3096,36	-85,3	     3371,45	-82,8
     41,4912	      3115,1	-85,0	     3452,56	-82,8
     41,4941	     3134,17	-84,6	     3566,63	-82,2
     41,4971	     3158,18	-84,4	     3718,95	-81,3
        41,5	     3176,33	-84,3	     3915,55	-80,1
     41,5029	     3197,87	-84,3	     4190,06	-77,9
     41,5059	     3216,52	-83,8	     4439,25	-75,8
     41,5088	      3237,2	-83,5	     4705,04	-72,8
     41,5117	     3265,03	-83,5	     4962,75	-69,8
     41,5147	     3296,96	-83,5	     5249,16	-66,6
     41,5176	     3317,29	-83,4	     5466,95	-63,8
     41,5205	        3335	-82,8	     5664,83	-60,9
     41,5235	     3360,61	-82,5	     5835,09	-58,1
     41,5264	     3381,95	-82,2	     6021,74	-54,9
     41,5293	     3403,02	-82,2	     6154,52	-52,8
     41,5323	     3424,98	-81,8	      6272,5	-50,8
     41,5352	      3453,7	-81,6	      6373,3	-48,6
     41,5381	     3486,41	-81,4	     6468,89	-46,7
     41,5411	     3513,62	-81,4	     6569,55	-45,0
      41,544	     3542,87	-80,9	     6636,61	-43,8
     41,5469	     3580,42	-80,3	     6695,83	-42,2
     41,5499	     3610,86	-79,8	     6761,28	-40,2
     41,5528	     3645,17	-79,7	     6806,62	-38,9
     41,5557	     3678,64	-79,4	     6853,79	-38,2
     41,5587	     3708,73	-78,8	     6890,25	-37,1
     41,5616	     3750,88	-78,5	     6923,14	-35,7
     41,5645	     3794,58	-78,3	     6958,83	-34,9
     41,5674	     3832,63	-78,0	     6991,95	-34,1
     41,5704	      3868,6	-77,5	     7017,45	-33,3
     41,5733	      3909,3	-76,9	      7042,1	-32,3
     41,5762	     3954,17	-76,7	      7062,9	-31,4
     41,5792	     4003,72	-76,0	     7082,15	-31,0
     41,5821	     4050,97	-75,2	     7105,83	-29,9
      41,585	     4102,26	-74,7	     7117,02	-29,2
      41,588	     4154,51	-74,3	     7132,84	-28,3
     41,5909	     4209,36	-73,8	     7147,41	-28,1
     41,5938	      4277,7	-73,1	     7161,17	-27,2
     41,5968	     4338,42	-72,1	        7174	-26,6
     41,5997	     4404,23	-71,4	     7184,84	-25,6
     41,6026	     4470,56	-70,8	     7190,22	-25,3
     41,6056	     4546,06	-69,8	     7196,75	-24,9
     41,6085	     4635,59	-68,6	     7203,81	-24,2
