X-Data [Hz]	Piezo (M - Filtered) [mV]	Phase [Deg]	Piezo (M - Filtered) [mV]	Phase [Deg]	
	002: [07-09-24 09:30]		003: [07-09-24 09:34]	
        40,5	     40,7083	-108,1	     44,9469	-111,1
     40,5029	     42,4981	-110,1	     44,6007	-108,5
     40,5059	     43,5745	-109,7	     44,8914	-109,1
     40,5088	     44,3059	-110,5	     44,9439	-110,8
     40,5117	     44,5561	-110,1	     44,8997	-109,4
     40,5147	      44,621	-108,8	     45,1755	-111,2
     40,5176	     44,8866	-109,4	     45,1113	-109,4
     40,5205	     44,8697	-108,4	     45,1042	-108,2
     40,5235	     44,8697	-110,1	     45,2443	-109,2
     40,5264	     45,3919	-110,4	     45,1782	-108,1
     40,5293	     44,9809	-109,3	     45,4293	-109,7
     40,5323	     45,1244	-108,6	     45,4778	-110,5
     40,5352	     45,4547	-109,5	     45,5773	-108,5
     40,5381	     45,2182	-108,6	      45,896	-110,8
     40,5411	     45,5256	-110,0	     45,5511	-108,9
      40,544	     45,4522	-110,2	        45,7	-108,3
     40,5469	     45,5775	-108,8	     45,8386	-110,4
     40,5499	     45,5098	-110,4	     45,9297	-109,6
     40,5528	     45,8794	-108,3	     45,8272	-108,1
     40,5557	     45,5669	-109,0	     46,1674	-109,6
     40,5587	     46,1266	-110,4	     45,9856	-108,0
     40,5616	     45,7427	-108,6	     46,1859	-109,3
     40,5645	     46,2604	-110,3	       46,31	-110,6
     40,5674	     46,0118	-110,0	     46,2548	-108,6
     40,5704	     46,1158	-108,5	     46,3982	-110,8
     40,5733	     46,1853	-109,3	     46,4255	-108,8
     40,5762	     46,1985	-108,2	     46,5129	-108,1
     40,5792	     46,2877	-109,1	     46,5624	-109,8
     40,5821	     46,4895	-110,3	     46,5833	-108,4
      40,585	      46,513	-109,8	     46,6973	-108,6
      40,588	     46,7484	-110,5	     46,9519	-110,1
     40,5909	     46,6457	-109,9	     46,8615	-108,8
     40,5938	     46,5538	-108,4	     46,9954	-110,8
     40,5968	     46,7531	-108,9	     47,3803	-110,0
     40,5997	     46,7449	-108,8	     47,0708	-107,9
     40,6026	     46,8964	-108,0	     47,3944	-110,6
     40,6056	      46,905	-109,4	     47,3589	-108,9
     40,6085	     47,3049	-110,3	     47,1578	-107,9
     40,6114	     47,1311	-109,1	     47,5871	-109,2
     40,6144	     47,2518	-109,8	     47,2764	-108,3
     40,6173	     47,2972	-109,0	     47,5472	-109,1
     40,6202	     47,1389	-108,2	     47,6197	-110,7
     40,6232	     47,5454	-110,1	     47,7897	-108,7
     40,6261	     47,6994	-110,3	     47,5628	-108,2
      40,629	     47,5188	-109,3	     48,1896	-109,4
      40,632	     47,7281	-109,9	     47,6141	-107,9
     40,6349	     47,6335	-109,2	     48,2345	-109,6
     40,6378	     47,9133	-108,1	     48,1773	-110,3
     40,6408	     47,7709	-108,8	     48,3259	-109,0
     40,6437	     48,0422	-108,1	     48,3647	-110,4
     40,6466	     47,9622	-109,1	      48,556	-109,8
     40,6496	      48,314	-110,0	     48,3905	-108,1
     40,6525	     48,0276	-109,3	     48,3671	-108,3
     40,6554	      48,449	-110,1	     48,5943	-108,3
     40,6584	     48,4288	-109,4	     48,5259	-108,1
     40,6613	     48,4243	-108,4	     48,9437	-110,2
     40,6642	      48,475	-108,8	       48,86	-109,6
     40,6672	     48,8297	-110,1	     48,8186	-108,2
     40,6701	     48,5995	-107,9	     49,1519	-110,2
      40,673	      48,865	-109,1	     49,2952	-109,0
      40,676	     48,9758	-110,2	     49,0942	-107,7
     40,6789	     48,8192	-108,6	     49,2417	-108,2
     40,6818	     49,1286	-110,1	     49,0748	-108,0
     40,6847	     49,0156	-108,5	     49,5499	-108,7
     40,6877	     49,0554	-107,7	     49,6837	-109,8
     40,6906	     49,1448	-109,0	     49,7977	-109,7
     40,6936	     49,4824	-110,0	     49,6087	-109,3
     40,6965	     49,4417	-108,0	     49,9333	-110,0
     40,6994	     49,5408	-109,6	     49,8637	-108,5
     40,7023	     49,8503	-109,3	     49,7682	-107,4
     40,7053	      49,393	-108,3	     50,0853	-109,2
     40,7082	     49,8621	-108,3	     49,8857	-107,6
     40,7111	     49,6945	-108,5	     50,1809	-108,6
     40,7141	     49,6335	-108,0	     50,3435	-109,7
      40,717	     50,1303	-108,7	     50,5365	-109,3
     40,7199	     49,9689	-107,7	     50,3552	-107,1
     40,7229	     50,1539	-108,3	     50,7456	-109,3
     40,7258	     50,3117	-109,3	     50,4849	-107,9
     40,7287	     50,4272	-109,3	      50,513	-107,0
     40,7317	     50,1968	-108,4	      50,649	-108,2
     40,7346	     50,3023	-108,2	     50,9743	-109,8
     40,7375	     50,6174	-108,8	     50,9848	-107,9
     40,7405	     50,7733	-108,0	     51,2522	-109,9
     40,7434	     50,6354	-108,7	     51,1203	-108,9
     40,7463	     51,1384	-109,6	      51,184	-107,5
     40,7493	     50,7161	-108,9	     51,5106	-109,4
     40,7522	     51,1049	-109,5	     51,5252	-108,6
     40,7551	     51,1175	-109,5	     51,4153	-108,1
     40,7581	     51,3719	-108,4	     51,6315	-109,4
      40,761	     51,1065	-107,6	     51,7548	-109,2
     40,7639	     51,3969	-108,8	     51,6667	-107,8
     40,7669	     51,2982	-108,0	     51,7507	-107,8
     40,7698	     51,4207	-108,0	     51,8903	-109,4
     40,7727	     51,5941	-108,9	     52,0062	-107,3
     40,7757	     51,5785	-107,7	     52,0629	-108,1
     40,7786	     51,7123	-107,9	     52,3685	-109,3
     40,7815	     51,9392	-109,0	     52,5355	-109,3
     40,7845	     52,2134	-109,0	     52,4477	-108,2
     40,7874	     51,9361	-107,7	     52,6402	-109,5
     40,7903	     52,3682	-109,1	     52,8137	-108,9
     40,7933	     52,3041	-108,4	     52,6066	-107,1
     40,7962	     52,0429	-107,2	     52,7783	-107,2
     40,7991	     52,5317	-107,7	     52,9143	-108,1
     40,8021	     52,4621	-107,9	     52,8901	-107,4
      40,805	     52,6075	-107,4	     52,8634	-107,2
     40,8079	     52,8093	-108,4	     53,1738	-108,6
     40,8109	     53,0218	-109,3	     53,2236	-106,7
     40,8138	     52,8769	-108,6	     53,2605	-108,1
     40,8167	     52,8684	-107,7	     53,6393	-109,2
     40,8196	     53,2536	-108,7	     53,6682	-108,8
     40,8226	     53,0816	-107,8	     53,7922	-108,2
     40,8255	     53,1428	-107,5	     53,8395	-108,6
     40,8284	      53,495	-108,6	     53,8157	-108,6
     40,8314	     53,7052	-109,0	      53,802	-106,5
     40,8343	     53,6968	-107,6	     53,8471	-107,6
     40,8372	     53,7483	-108,9	      54,235	-108,7
     40,8402	     53,8372	-108,9	     53,9136	-107,2
     40,8431	     53,7004	-107,7	     54,4851	-107,8
      40,846	     53,7592	-107,2	     54,3928	-108,4
      40,849	     54,1667	-108,8	     54,7225	-108,8
     40,8519	     54,2484	-107,9	     54,6628	-107,6
     40,8548	     54,0305	-107,1	     55,0274	-108,8
     40,8578	     54,4638	-107,4	      54,879	-108,5
     40,8607	     54,6373	-108,7	      55,248	-107,3
     40,8636	     54,4004	-107,1	     55,0129	-106,5
     40,8666	     54,7714	-107,9	     55,4159	-108,2
     40,8695	     54,9629	-108,8	      55,262	-106,4
     40,8724	     54,7002	-107,0	     55,2528	-106,5
     40,8754	     54,9443	-107,5	     55,4141	-107,8
     40,8783	     55,2406	-108,7	      55,845	-108,8
     40,8812	     55,3469	-109,0	     55,5124	-106,3
     40,8842	     55,2063	-108,0	     55,6503	-107,5
     40,8871	     55,7131	-108,7	     56,2032	-108,5
       40,89	     55,5686	-108,9	     56,0121	-106,7
      40,893	     55,7571	-107,8	     56,0694	-107,5
     40,8959	     55,5982	-106,9	     56,3012	-108,6
     40,8988	     55,9749	-108,7	     56,7761	-108,7
     40,9018	     56,1325	-107,9	     56,5378	-107,5
     40,9047	     56,0901	-106,8	     56,7963	-108,0
     40,9076	     56,1341	-107,0	     56,8417	-108,7
     40,9106	     56,3893	-108,2	     57,0292	-108,0
     40,9135	      56,578	-108,5	     56,9823	-107,0
     40,9164	     56,4294	-106,6	     57,1749	-108,5
     40,9194	     56,6978	-107,8	     57,3037	-107,5
     40,9223	     56,7799	-108,7	      57,074	-106,7
     40,9252	     56,6836	-106,9	     57,4126	-106,4
     40,9282	      56,997	-107,8	     57,5359	-107,9
     40,9311	     57,3204	-108,5	     57,8311	-108,8
      40,934	     57,4409	-108,3	     57,8643	-107,4
      40,937	     57,1411	-107,5	     58,0873	-108,1
     40,9399	     57,6807	-108,4	     58,1444	-108,4
     40,9428	     57,6481	-108,2	     58,2503	-108,0
     40,9457	     57,3421	-107,0	     58,1115	-107,1
     40,9487	     57,7397	-106,2	     58,4041	-107,8
     40,9516	     57,7595	-106,9	     58,6168	-108,1
     40,9545	     57,8358	-107,3	     58,5878	-107,1
     40,9575	     58,0675	-106,8	     58,5307	-106,3
     40,9604	     58,1382	-106,6	     58,8665	-108,1
     40,9633	     58,4855	-107,8	     59,0637	-107,5
     40,9663	      58,572	-108,2	     58,9763	-106,5
     40,9692	     58,5467	-106,9	     59,1198	-106,2
     40,9721	     58,7358	-107,9	     59,1099	-107,3
     40,9751	     59,0285	-108,2	     59,4246	-106,7
      40,978	     58,9276	-107,9	      59,439	-105,9
     40,9809	     58,9514	-106,5	     59,4572	-106,3
     40,9839	     59,0604	-106,4	     59,7184	-107,0
     40,9868	      59,383	-107,4	     59,7945	-106,1
     40,9897	     59,4454	-106,7	      59,983	-105,8
     40,9927	      59,296	-106,4	     59,9554	-106,7
     40,9956	     59,6271	-106,5	     60,6099	-107,9
     40,9985	     59,9648	-107,9	     60,5657	-108,0
     41,0015	     59,9156	-106,3	     60,4602	-106,6
     41,0044	     59,9455	-106,7	     60,6153	-107,6
     41,0073	     60,1955	-107,1	     61,1844	-107,9
     41,0103	     60,3724	-107,7	      60,967	-107,0
     41,0132	     60,2258	-106,0	     60,9939	-106,0
     41,0161	     60,4994	-106,5	     61,3289	-107,7
     41,0191	     60,8449	-107,2	      61,683	-107,7
      41,022	     60,9354	-107,9	     61,4626	-106,4
     41,0249	     61,1147	-107,4	     61,5776	-106,0
     41,0279	     61,1915	-107,3	     61,9718	-107,4
     41,0308	     61,3481	-107,9	     62,0825	-108,1
     41,0337	     61,4563	-108,0	     62,2258	-107,3
     41,0367	     61,2132	-106,5	     62,0804	-106,0
     41,0396	     61,4515	-106,0	     62,1706	-105,6
     41,0425	     61,6592	-107,5	     62,6699	-107,1
     41,0455	     61,9259	-107,3	     62,5839	-106,1
     41,0484	     61,9233	-106,6	     62,6873	-105,5
     41,0513	     61,7956	-105,7	     62,5718	-105,6
     41,0543	     62,4766	-107,5	     62,9892	-106,8
     41,0572	       62,31	-106,9	     63,1113	-105,8
     41,0601	     62,3462	-106,1	     63,2205	-105,5
      41,063	     62,6631	-106,0	     63,2778	-106,0
      41,066	     62,6403	-106,1	     63,6862	-106,9
     41,0689	     63,0405	-107,1	     63,8478	-107,0
     41,0718	     62,8451	-105,7	     63,7075	-105,8
     41,0748	     63,0646	-105,4	     64,0247	-106,3
     41,0777	     63,3915	-105,6	      64,319	-106,9
     41,0806	     63,4309	-106,5	     64,4499	-107,4
     41,0836	     63,5063	-105,8	     64,5755	-106,7
     41,0865	     63,6641	-105,7	     64,5401	-106,2
     41,0894	     63,7955	-106,4	     64,8156	-107,1
     41,0924	     64,1984	-106,7	     65,1568	-107,1
     41,0953	     64,1063	-106,4	     65,1978	-106,0
     41,0982	     64,0951	-105,3	     65,2083	-105,5
     41,1012	     64,7607	-107,1	     65,3461	-106,5
     41,1041	     64,7476	-107,0	     65,5415	-106,9
      41,107	     64,8554	-106,3	     65,5945	-106,6
       41,11	     64,8047	-105,9	     65,7717	-106,0
     41,1129	     64,8962	-105,4	     65,9702	-106,5
     41,1158	     65,4743	-107,0	     66,3683	-107,0
     41,1188	     65,5216	-106,5	     66,3183	-106,3
     41,1217	     65,3229	-105,4	     66,4516	-106,0
     41,1246	     65,5586	-105,4	     66,5943	-105,2
     41,1276	     65,6882	-105,6	     66,7356	-106,2
     41,1305	     66,0848	-106,6	      66,895	-106,5
     41,1334	     66,1413	-105,4	     67,1687	-106,9
     41,1364	     66,0325	-105,2	     67,3553	-105,9
     41,1393	     66,4249	-105,7	     67,4881	-106,2
     41,1422	     66,7032	-106,3	     67,6838	-106,3
     41,1452	     66,6593	-105,5	     67,9731	-106,1
     41,1481	     66,8135	-105,3	     67,5696	-104,3
      41,151	     67,0287	-105,5	     67,7805	-104,8
      41,154	     67,3126	-106,1	     68,1811	-105,6
     41,1569	     67,5721	-106,7	     68,5994	-106,2
     41,1598	     67,6745	-106,0	     68,6454	-106,5
     41,1628	     67,5421	-105,2	     68,5771	-105,1
     41,1657	     67,9929	-106,6	     68,6483	-104,8
     41,1686	     68,1419	-106,7	     68,9766	-105,6
     41,1716	     68,2456	-105,8	     69,4163	-106,2
     41,1745	     68,4163	-105,7	     69,0739	-104,6
     41,1774	     68,5085	-105,3	     69,5353	-104,7
     41,1804	     68,8025	-105,6	     69,5809	-105,5
     41,1833	     69,1598	-106,5	     69,9925	-106,4
     41,1862	     69,0201	-106,0	     70,3697	-105,9
     41,1891	      69,285	-105,4	     70,0826	-104,3
     41,1921	       69,31	-105,8	     70,5233	-104,6
      41,195	     69,5915	-106,0	     70,4778	-105,3
     41,1979	      70,068	-106,0	     70,9028	-106,3
     41,2009	     69,8192	-104,5	     71,2237	-106,0
     41,2038	     69,8631	-104,7	     71,3177	-105,3
     41,2067	     70,3899	-105,7	     71,2429	-104,5
     41,2097	     70,6728	-106,3	     71,3943	-104,6
     41,2126	     70,6368	-106,0	     71,4041	-105,4
     41,2155	     70,5385	-104,8	     72,0184	-104,5
     41,2185	     71,0759	-105,1	     71,7953	-104,1
     41,2214	     71,3035	-105,7	     72,1414	-104,6
     41,2243	     71,5567	-106,1	     72,5035	-104,6
     41,2273	     71,5297	-106,0	     72,5763	-104,9
     41,2302	     71,6598	-104,4	     72,8149	-104,3
     41,2331	     71,7907	-104,7	     72,9952	-104,0
     41,2361	     72,1262	-104,8	     73,0478	-103,9
      41,239	     72,3794	-105,4	     73,3121	-104,6
     41,2419	     72,2831	-104,4	     73,5251	-104,5
     41,2449	     72,4668	-104,2	     73,9726	-104,6
     41,2478	      72,718	-104,5	     73,9406	-104,0
     41,2507	     73,0926	-105,0	     73,9418	-103,9
     41,2537	     73,3142	-105,0	     74,3865	-104,9
     41,2566	     73,3904	-104,5	     74,7515	-105,2
     41,2595	     73,4595	-103,7	       75,02	-105,2
     41,2625	     73,6373	-104,1	     74,8729	-104,4
     41,2654	     73,8958	-104,4	     75,1211	-103,8
     41,2683	     74,1501	-105,1	     75,3411	-103,7
     41,2713	     74,3948	-104,5	     75,5116	-104,7
     41,2742	      74,354	-104,4	     75,9827	-105,3
     41,2771	      74,583	-103,8	     76,3217	-104,9
     41,2801	     75,0692	-104,9	     76,0521	-103,9
      41,283	      75,432	-105,1	     76,4848	-104,2
     41,2859	     75,4103	-105,2	     76,8801	-104,5
     41,2889	     75,3278	-103,8	     76,8542	-104,7
     41,2918	     75,5226	-103,8	     77,2373	-105,1
     41,2947	     76,0243	-103,8	     77,6319	-104,5
     41,2977	     76,3783	-104,1	     77,5258	-103,9
     41,3006	      76,471	-105,1	     77,8719	-104,1
     41,3035	     76,6073	-103,9	      78,041	-104,0
     41,3064	     76,6095	-103,7	     78,4271	-104,6
     41,3094	     76,8215	-103,3	     78,7089	-104,5
     41,3123	     77,0316	-103,6	      78,364	-103,1
     41,3153	     77,5284	-104,0	     78,6518	-103,2
     41,3182	      77,777	-103,7	     79,2579	-103,1
     41,3211	     77,8673	-103,7	     79,2692	-103,8
      41,324	     77,9121	-103,6	     79,7887	-104,6
      41,327	      78,161	-103,0	     79,7215	-103,0
     41,3299	     78,7678	-104,8	     80,0138	-103,1
     41,3328	     78,9267	-104,5	     80,2278	-102,5
     41,3358	     79,3791	-104,7	     80,7228	-104,0
     41,3387	     79,4539	-104,1	     80,9227	-103,8
     41,3416	     79,3766	-103,7	     81,2377	-103,9
     41,3446	     79,8022	-103,6	     81,3439	-103,6
     41,3475	     80,2251	-103,8	      81,371	-103,0
     41,3504	     80,4814	-104,4	     81,8028	-102,4
     41,3534	     80,2107	-102,8	     82,2066	-103,4
     41,3563	     80,6082	-102,8	     82,3719	-103,8
     41,3592	      80,921	-103,1	     82,6809	-104,1
     41,3622	     81,1704	-103,2	     82,6833	-102,7
     41,3651	     81,1919	-103,3	     82,8526	-102,4
      41,368	     81,6509	-103,4	     83,0464	-102,2
      41,371	     82,0029	-103,4	     83,3521	-102,8
     41,3739	      82,095	-103,0	     83,9098	-103,1
     41,3768	     82,1021	-102,6	      84,108	-103,2
     41,3798	     82,5028	-102,3	     84,3709	-102,9
     41,3827	     82,7568	-102,9	     84,6544	-102,4
     41,3856	     83,2137	-103,8	     84,7648	-102,2
     41,3886	     83,5301	-103,7	     85,1889	-102,8
     41,3915	      83,575	-103,4	     85,5014	-103,7
     41,3944	     83,7869	-102,6	     85,7982	-103,4
     41,3974	     84,1939	-102,7	     86,0142	-102,9
     41,4003	     84,6288	-103,2	      86,276	-103,0
     41,4032	     84,9405	-103,4	     86,2242	-102,2
     41,4062	     85,1591	-103,3	      86,721	-102,5
     41,4091	     84,7121	-102,2	      87,189	-103,0
      41,412	      85,326	-101,6	     87,6016	-102,5
      41,415	     85,7244	-101,9	     87,4768	-102,7
     41,4179	     85,9767	-102,3	      87,775	-101,3
     41,4208	     86,3372	-102,6	     88,2361	-102,0
     41,4238	     86,7652	-103,0	     88,5631	-101,6
     41,4267	     86,7487	-102,6	     88,8223	-101,7
     41,4296	     87,0878	-102,7	     89,1681	-101,8
     41,4326	     87,4522	-102,1	      89,501	-102,1
     41,4355	     87,6916	-101,8	     89,8094	-102,4
     41,4384	      88,095	-102,0	     90,3139	-102,1
     41,4413	     88,3776	-102,3	     90,3383	-101,2
     41,4443	     88,6674	-102,2	     90,4507	-101,1
     41,4472	     88,8045	-101,9	     90,9372	-101,7
     41,4501	     88,8785	-101,8	     91,2329	-101,4
     41,4531	     89,3214	-101,4	     91,7618	-102,2
      41,456	     89,6456	-101,4	     92,1022	-101,6
     41,4589	     90,1051	-102,2	     92,5171	-101,0
     41,4619	      90,848	-102,6	     92,7955	-101,2
     41,4648	     91,0368	-102,6	     92,9754	-101,6
     41,4677	     91,0285	-102,1	     93,3756	-101,5
     41,4707	     91,4623	-102,1	     93,6447	-101,1
     41,4736	     91,6318	-100,8	     93,9078	-101,4
     41,4765	     91,9509	-101,2	     94,5425	-102,0
     41,4795	     92,0104	-101,1	     94,6858	-100,8
     41,4824	     92,7788	-102,0	     94,9077	-100,3
     41,4853	     93,1298	-101,7	     95,1169	-99,9
     41,4883	     93,3138	-101,7	     95,5291	-100,4
     41,4912	     93,4365	-101,5	     96,2819	-101,5
     41,4941	     93,8926	-101,1	     96,6008	-101,3
     41,4971	     94,3424	-100,8	     97,0683	-101,3
        41,5	     94,5829	-100,8	      97,426	-100,8
     41,5029	     94,8863	-101,4	     97,7844	-101,0
     41,5059	     95,2103	-100,9	     97,7144	-100,1
     41,5088	     95,7118	-101,3	     98,1822	-99,9
     41,5117	      96,162	-100,5	     98,5377	-99,7
     41,5147	     96,3862	-100,4	     99,0553	-100,1
     41,5176	     96,5303	-100,5	     99,3804	-100,3
     41,5205	      96,764	-100,1	     99,9557	-100,3
     41,5235	     97,7234	-100,9	     100,579	-99,6
     41,5264	      98,294	-101,0	     100,853	-99,0
     41,5293	     98,5352	-101,4	     101,048	-99,5
     41,5323	     98,7538	-101,4	     101,352	-99,4
     41,5352	     99,1518	-100,9	     101,719	-99,1
     41,5381	     99,2077	-99,5	     102,629	-100,2
     41,5411	     99,7555	-99,8	     103,097	-100,2
      41,544	     99,8573	-99,6	     103,486	-100,2
     41,5469	     100,892	-100,9	     103,818	-99,7
     41,5499	     101,318	-100,4	       104,1	-98,7
     41,5528	     101,636	-100,5	     104,564	-98,6
     41,5557	     101,692	-100,7	     104,993	-98,8
     41,5587	     102,353	-100,3	      105,44	-99,0
     41,5616	     102,805	-100,1	     105,915	-98,4
     41,5645	     102,766	-99,1	     106,782	-99,3
     41,5674	     103,208	-99,1	      107,15	-99,4
     41,5704	     103,969	-99,3	     107,569	-99,7
     41,5733	     104,242	-99,3	     108,049	-99,1
     41,5762	     104,704	-99,1	     108,335	-98,0
