X-Data [Hz]	Piezo (M - Filtered) [mV]	Phase [Deg]	
	002: [07-01-24 17:37]	
        33,5	     262,888	-87,0
      33,502	     275,481	-88,9
     33,5039	     279,145	-88,0
     33,5059	     286,856	-90,4
     33,5078	     264,721	-89,3
     33,5098	     285,001	-85,9
     33,5117	     282,058	-91,0
     33,5137	     277,054	-88,2
     33,5156	     290,868	-87,4
     33,5176	     283,112	-87,6
     33,5196	     289,053	-86,8
     33,5215	     283,052	-89,1
     33,5235	     283,552	-86,0
     33,5254	     290,945	-87,6
     33,5274	     284,576	-89,3
     33,5293	     288,431	-87,0
     33,5313	     290,695	-88,4
     33,5332	     285,737	-88,3
     33,5352	     292,369	-86,3
     33,5371	     291,154	-86,8
     33,5391	     295,611	-85,8
     33,5411	     293,222	-87,9
      33,543	     293,044	-86,4
      33,545	     298,039	-85,6
     33,5469	     295,978	-88,3
     33,5489	      294,11	-87,8
     33,5508	     291,373	-87,2
     33,5528	     300,404	-85,8
     33,5547	      296,46	-88,1
     33,5567	      296,32	-86,7
     33,5587	     302,183	-85,1
     33,5606	     300,952	-87,7
     33,5626	     298,759	-86,2
     33,5645	      304,64	-85,3
     33,5665	     306,437	-85,0
     33,5684	     298,265	-86,7
     33,5704	     307,437	-84,7
     33,5723	     307,036	-85,8
     33,5743	     299,887	-87,0
     33,5762	     303,844	-85,9
     33,5782	     308,342	-84,7
     33,5802	     302,636	-86,7
     33,5821	     307,229	-86,4
     33,5841	     306,101	-85,7
      33,586	     311,618	-84,3
      33,588	     306,343	-86,7
     33,5899	      311,72	-84,5
     33,5919	     313,075	-85,8
     33,5938	     308,273	-86,3
     33,5958	     314,309	-83,8
     33,5978	     316,771	-84,4
     33,5997	     315,011	-85,9
     33,6017	     318,091	-84,8
     33,6036	     313,896	-86,1
     33,6056	     318,376	-83,5
     33,6075	     319,752	-83,9
     33,6095	     316,421	-85,5
     33,6114	     317,971	-85,0
     33,6134	     320,357	-83,7
     33,6153	     324,915	-83,7
     33,6173	       319,4	-85,2
     33,6193	     319,143	-83,8
     33,6212	     326,721	-83,2
     33,6232	     322,337	-85,0
     33,6251	     322,731	-83,3
     33,6271	     330,132	-82,5
      33,629	     322,849	-85,0
      33,631	     323,481	-83,6
     33,6329	      327,43	-82,4
     33,6349	     329,048	-82,6
     33,6369	     335,049	-82,4
     33,6388	     329,349	-84,0
     33,6408	     327,536	-82,4
     33,6427	     335,077	-82,4
     33,6447	     334,285	-82,6
     33,6466	      334,32	-82,8
     33,6486	     328,719	-83,5
     33,6505	     335,072	-81,3
     33,6525	     340,885	-82,1
     33,6544	     333,169	-83,5
     33,6564	     336,793	-81,5
     33,6584	     342,883	-81,7
     33,6603	     337,593	-83,3
     33,6623	     340,014	-81,1
     33,6642	     344,935	-81,3
     33,6662	     341,859	-82,6
     33,6681	     341,011	-81,8
     33,6701	      346,11	-80,5
      33,672	      341,68	-82,8
      33,674	     346,639	-82,1
      33,676	     343,467	-82,1
     33,6779	     347,307	-80,1
     33,6799	     351,769	-80,3
     33,6818	     345,777	-82,2
     33,6838	     349,603	-80,9
     33,6857	     353,938	-79,4
     33,6877	     353,509	-79,2
     33,6896	     352,824	-81,3
     33,6916	     350,678	-80,8
     33,6936	     356,515	-79,0
     33,6955	     358,822	-79,6
     33,6975	      355,05	-81,5
     33,6994	     356,698	-79,2
     33,7014	      362,72	-79,4
     33,7033	     360,848	-79,8
     33,7053	     361,696	-80,0
     33,7072	     357,752	-80,2
     33,7092	     365,608	-77,5
     33,7111	     365,232	-78,5
     33,7131	     362,741	-79,6
     33,7151	      362,61	-79,4
      33,717	     369,737	-78,1
      33,719	      365,23	-79,5
     33,7209	     363,459	-80,0
     33,7229	     369,399	-78,4
     33,7248	     373,599	-78,2
     33,7268	     373,081	-78,9
     33,7287	      375,35	-78,4
     33,7307	     367,344	-79,5
     33,7327	     373,845	-76,5
     33,7346	     378,955	-77,2
     33,7366	     373,198	-79,1
     33,7385	     372,595	-77,7
     33,7405	     381,098	-76,4
     33,7424	     379,213	-78,3
     33,7444	     380,601	-77,1
     33,7463	     375,821	-77,8
     33,7483	     383,619	-76,2
     33,7502	     383,655	-76,3
     33,7522	     381,927	-77,5
     33,7542	     382,052	-76,6
     33,7561	     390,269	-76,4
     33,7581	     385,482	-77,8
       33,76	     383,619	-77,5
      33,762	     391,688	-75,4
     33,7639	      386,94	-76,6
     33,7659	     385,804	-77,0
     33,7678	     392,399	-74,8
     33,7698	     395,036	-75,1
     33,7718	     396,237	-75,0
     33,7737	     394,556	-76,0
     33,7757	      393,43	-75,5
     33,7776	     399,816	-74,1
     33,7796	     398,208	-76,0
     33,7815	      394,65	-75,7
     33,7835	     402,006	-73,9
     33,7854	     401,949	-74,7
     33,7874	     399,796	-75,4
     33,7893	     400,514	-75,3
     33,7913	     405,779	-73,2
     33,7933	     408,655	-73,6
     33,7952	     408,828	-73,2
     33,7972	     407,851	-73,9
     33,7991	     404,379	-74,8
     33,8011	     404,859	-73,7
      33,803	     414,671	-72,2
      33,805	     413,609	-73,0
     33,8069	     408,075	-74,2
     33,8089	     412,117	-72,5
     33,8109	     418,028	-72,4
     33,8128	      418,15	-71,0
     33,8148	     418,915	-72,5
     33,8167	     415,044	-73,4
     33,8187	     417,625	-71,8
     33,8206	     422,356	-71,8
     33,8226	      423,05	-71,8
     33,8245	     418,083	-71,8
     33,8265	     424,268	-71,0
     33,8284	     426,314	-70,4
     33,8304	     426,355	-71,4
     33,8324	     420,643	-72,2
     33,8343	     424,992	-69,6
     33,8363	     429,364	-71,0
     33,8382	     431,409	-70,3
     33,8402	     433,101	-70,0
     33,8421	     432,726	-71,6
     33,8441	     430,103	-71,0
      33,846	      430,31	-70,6
      33,848	     431,592	-70,1
       33,85	     440,519	-69,0
     33,8519	     441,354	-69,3
     33,8539	     435,103	-70,3
     33,8558	     434,221	-70,9
     33,8578	     437,001	-69,8
     33,8597	      440,21	-68,5
     33,8617	     444,798	-67,9
     33,8636	     442,242	-69,9
     33,8656	      445,87	-68,6
     33,8675	     442,978	-69,0
     33,8695	     444,143	-68,8
     33,8715	     448,798	-67,3
     33,8734	     450,159	-68,2
     33,8754	     449,285	-68,1
     33,8773	     447,005	-68,6
     33,8793	     449,019	-68,9
     33,8812	     451,039	-67,0
     33,8832	     456,989	-66,2
     33,8851	     459,264	-66,2
     33,8871	     460,074	-66,8
     33,8891	     453,357	-67,3
      33,891	      456,45	-66,4
      33,893	     460,384	-65,8
     33,8949	     463,613	-65,7
     33,8969	     457,765	-67,4
     33,8988	     459,921	-66,6
     33,9008	     460,698	-67,0
     33,9027	     464,354	-65,3
     33,9047	     470,815	-64,7
     33,9066	     469,091	-65,2
     33,9086	     466,221	-65,8
     33,9106	     466,584	-65,5
     33,9125	     468,044	-64,7
     33,9145	     466,955	-65,4
     33,9164	     473,716	-63,5
     33,9184	     477,598	-63,7
     33,9203	     474,571	-64,8
     33,9223	     472,701	-65,0
     33,9242	     474,745	-64,5
     33,9262	     479,574	-63,7
     33,9282	     481,155	-63,3
     33,9301	     479,598	-63,7
     33,9321	     482,661	-62,8
      33,934	     486,277	-62,9
      33,936	     483,496	-63,7
     33,9379	     482,512	-63,8
     33,9399	     484,936	-63,0
     33,9418	     491,703	-61,5
     33,9438	     491,421	-61,7
     33,9457	     488,432	-62,7
     33,9477	     485,698	-63,0
     33,9497	     491,813	-60,5
     33,9516	     490,209	-62,4
     33,9536	     494,054	-60,4
     33,9555	     497,657	-60,4
     33,9575	     497,143	-61,5
     33,9594	     494,814	-61,6
     33,9614	     496,836	-60,5
     33,9633	     503,447	-59,7
     33,9653	      505,78	-59,7
     33,9673	     501,962	-61,1
     33,9692	      501,93	-61,4
     33,9712	      502,02	-60,5
     33,9731	     501,562	-60,5
     33,9751	     510,057	-59,2
      33,977	     512,084	-58,1
      33,979	     513,544	-59,3
     33,9809	     509,725	-60,1
     33,9829	     508,645	-59,6
     33,9848	     510,858	-59,8
     33,9868	     511,292	-58,8
     33,9888	     513,924	-59,9
     33,9907	     513,794	-59,1
     33,9927	     516,408	-58,5
     33,9946	     522,483	-56,6
     33,9966	     524,315	-56,7
     33,9985	     525,913	-56,7
     34,0005	     527,426	-56,4
     34,0024	     524,335	-57,2
     34,0044	     522,572	-57,3
     34,0064	     523,934	-57,2
     34,0083	     526,108	-57,1
     34,0103	     531,004	-55,1
     34,0122	     532,927	-55,8
     34,0142	     532,544	-56,6
     34,0161	     530,525	-56,1
     34,0181	     531,684	-55,6
       34,02	     532,888	-55,8
      34,022	     535,428	-55,0
     34,0239	     540,038	-54,4
     34,0259	     542,317	-54,5
     34,0279	     540,406	-54,8
     34,0298	     540,015	-55,3
     34,0318	     540,186	-54,6
     34,0337	     545,148	-53,4
     34,0357	     551,228	-53,1
     34,0376	     552,293	-52,8
     34,0396	     553,441	-52,8
     34,0415	     551,438	-52,2
     34,0435	     549,032	-54,1
     34,0455	     549,367	-53,7
     34,0474	     551,694	-53,0
     34,0494	     555,378	-51,9
     34,0513	     560,926	-51,6
     34,0533	     559,544	-51,6
     34,0552	     557,559	-52,7
     34,0572	     558,915	-52,0
     34,0591	     560,913	-51,5
     34,0611	      563,96	-51,2
      34,063	     565,814	-50,2
      34,065	     564,642	-51,0
      34,067	     569,107	-49,4
     34,0689	       572,7	-49,8
     34,0709	      572,93	-49,1
     34,0728	     572,385	-49,5
     34,0748	     575,015	-48,4
     34,0767	     576,909	-49,3
     34,0787	     574,946	-49,5
     34,0806	      576,04	-49,6
     34,0826	      577,71	-49,4
     34,0846	     577,804	-49,0
     34,0865	     580,932	-47,9
     34,0885	     577,476	-49,3
     34,0904	     580,881	-48,8
     34,0924	     583,013	-47,4
     34,0943	     587,381	-47,3
     34,0963	     591,703	-46,2
     34,0982	     592,785	-46,3
     34,1002	       593,9	-46,0
     34,1021	     595,169	-45,5
     34,1041	     598,583	-45,4
     34,1061	     598,719	-46,0
      34,108	     597,653	-45,6
       34,11	     596,366	-46,2
     34,1119	     596,691	-46,2
     34,1139	     597,406	-46,1
     34,1158	     599,349	-45,2
     34,1178	     607,366	-44,4
     34,1197	     605,222	-44,4
     34,1217	     609,353	-44,0
     34,1237	       612,3	-42,8
     34,1256	     611,454	-43,6
     34,1276	      613,08	-43,4
     34,1295	     612,933	-44,0
     34,1315	      611,11	-43,9
     34,1334	     611,512	-43,1
     34,1354	     614,799	-42,6
     34,1373	     615,232	-42,8
     34,1393	     616,931	-42,4
     34,1413	     618,122	-42,7
     34,1432	     622,564	-41,2
     34,1452	     625,641	-40,4
     34,1471	     628,078	-40,5
     34,1491	     623,701	-41,6
      34,151	      624,57	-41,5
      34,153	     630,662	-40,3
     34,1549	     635,411	-39,4
     34,1569	     635,151	-38,6
     34,1588	     635,337	-38,9
     34,1608	     638,336	-38,8
     34,1628	     639,688	-38,0
     34,1647	     639,403	-38,1
     34,1667	     642,672	-37,7
     34,1686	      640,31	-37,7
     34,1706	     640,518	-38,3
     34,1725	     639,281	-37,9
     34,1745	     642,661	-37,6
     34,1764	      646,71	-37,0
     34,1784	     650,456	-36,1
     34,1804	     652,941	-35,4
     34,1823	      653,44	-35,0
     34,1843	     654,612	-36,0
     34,1862	      655,96	-34,8
     34,1882	      656,57	-34,6
     34,1901	     656,684	-34,7
     34,1921	     655,212	-34,7
      34,194	     657,621	-34,7
      34,196	     655,644	-34,2
     34,1979	     658,829	-34,7
     34,1999	     660,042	-34,1
     34,2019	     662,469	-33,4
     34,2038	     661,798	-33,4
     34,2058	       663,9	-32,8
     34,2077	     665,967	-32,5
     34,2097	     666,164	-32,7
     34,2116	     665,595	-32,8
     34,2136	     667,375	-32,2
     34,2155	     667,834	-31,5
     34,2175	     669,551	-31,3
     34,2195	     673,574	-30,1
     34,2214	     675,871	-30,1
     34,2234	     670,661	-30,6
     34,2253	     674,747	-30,1
     34,2273	     675,639	-30,1
     34,2292	     679,493	-29,3
     34,2312	     678,851	-28,6
     34,2331	     677,975	-28,6
     34,2351	     677,112	-28,9
      34,237	     678,012	-27,5
      34,239	     679,239	-28,3
      34,241	     682,063	-27,5
     34,2429	     686,835	-26,5
     34,2449	      685,92	-26,5
     34,2468	     685,146	-27,0
     34,2488	     684,688	-26,8
     34,2507	     687,567	-25,8
     34,2527	     692,163	-24,2
     34,2546	      694,15	-24,4
     34,2566	     694,829	-24,2
     34,2586	      693,82	-24,0
     34,2605	      692,12	-23,9
     34,2625	      692,73	-23,5
     34,2644	     690,833	-24,0
     34,2664	     695,693	-23,1
     34,2683	     693,714	-22,8
     34,2703	     696,725	-22,7
     34,2722	     698,362	-21,9
     34,2742	     698,056	-21,3
     34,2761	     700,614	-21,0
     34,2781	     700,385	-20,6
     34,2801	     700,625	-20,4
      34,282	     701,328	-20,6
      34,284	     702,962	-19,6
     34,2859	     703,224	-19,5
     34,2879	     700,742	-19,3
     34,2898	     697,958	-20,0
     34,2918	     696,994	-19,4
     34,2937	     696,606	-19,4
     34,2957	     700,329	-19,0
     34,2977	     697,734	-18,8
     34,2996	     697,271	-18,6
     34,3016	      697,27	-18,3
     34,3035	     699,655	-18,0
     34,3055	     704,111	-16,5
     34,3074	     704,594	-16,2
     34,3094	     708,133	-16,2
     34,3113	      706,46	-15,5
     34,3133	     703,406	-15,0
     34,3153	     702,827	-15,2
     34,3172	     704,667	-14,4
     34,3192	     707,058	-14,2
     34,3211	     706,441	-13,9
     34,3231	     706,499	-13,3
      34,325	     705,449	-13,0
      34,327	     701,813	-13,5
     34,3289	     699,796	-13,3
     34,3309	      700,07	-13,1
     34,3328	     701,883	-12,3
     34,3348	     705,871	-11,7
     34,3368	     703,794	-11,5
     34,3387	     701,447	-12,0
     34,3407	       701,4	-11,2
     34,3426	      704,99	-10,7
     34,3446	     702,272	-10,6
     34,3465	     697,453	-10,8
     34,3485	     698,839	-10,4
     34,3504	     702,338	-9,6
     34,3524	     703,881	-9,2
     34,3544	     704,032	-8,8
     34,3563	     701,652	-9,0
     34,3583	     701,788	-8,1
     34,3602	         702	-8,1
     34,3622	     700,642	-7,7
     34,3641	     700,287	-8,1
     34,3661	     700,106	-7,2
      34,368	     701,229	-6,7
       34,37	     699,328	-6,8
     34,3719	     698,852	-6,4
     34,3739	     696,243	-6,5
     34,3759	     698,208	-5,8
     34,3778	      698,28	-6,0
     34,3798	     690,972	-5,9
     34,3817	     689,949	-5,9
     34,3837	     690,224	-6,1
     34,3856	     691,429	-4,9
     34,3876	      690,37	-4,6
     34,3895	     690,487	-4,2
     34,3915	     688,883	-4,7
     34,3935	     685,936	-3,9
     34,3954	     685,209	-4,1
     34,3974	     682,639	-3,3
     34,3993	     684,797	-3,4
     34,4013	     682,917	-2,7
     34,4032	     681,553	-2,4
     34,4052	     680,963	-2,1
     34,4071	     679,739	-2,4
     34,4091	     680,993	-2,0
      34,411	     680,313	-2,1
      34,413	     680,873	-0,7
      34,415	     675,239	-1,4
     34,4169	     675,947	-1,1
     34,4189	     675,977	-0,3
     34,4208	     676,891	-0,4
     34,4228	     675,827	-0,2
     34,4247	     670,806	-0,2
     34,4267	     672,343	 0,6
     34,4286	     673,033	 1,2
     34,4306	     671,491	 1,2
     34,4326	     670,753	 1,4
     34,4345	     672,037	 1,7
     34,4365	      674,19	 2,1
     34,4384	     667,404	 1,7
     34,4404	     665,851	 1,8
     34,4423	     663,207	 2,3
     34,4443	     664,612	 2,4
     34,4462	     661,859	 3,4
     34,4482	     659,547	 3,2
     34,4501	     660,054	 3,0
     34,4521	     657,027	 4,0
     34,4541	     659,015	 4,1
      34,456	     658,884	 4,9
      34,458	     657,595	 4,7
     34,4599	     653,291	 4,9
     34,4619	     652,796	 4,6
     34,4638	     652,094	 5,7
     34,4658	     650,552	 5,4
     34,4677	     648,557	 6,1
     34,4697	     649,313	 6,0
     34,4717	     647,447	 6,0
     34,4736	     643,773	 5,9
     34,4756	     644,578	 6,5
     34,4775	     644,212	 7,7
     34,4795	     645,664	 7,3
     34,4814	      644,38	 8,1
     34,4834	     642,354	 7,7
     34,4853	     643,038	 8,5
     34,4873	     638,896	 8,5
     34,4892	     641,537	 8,6
     34,4912	     639,914	 8,4
     34,4932	     636,553	 9,5
     34,4951	     637,595	 9,2
     34,4971	     636,838	 9,5
      34,499	     637,171	10,3
      34,501	     633,812	 9,8
     34,5029	     633,923	10,2
     34,5049	     631,483	10,0
     34,5068	     630,126	10,3
     34,5088	     631,175	10,9
     34,5108	     625,676	11,2
     34,5127	     623,421	10,7
     34,5147	     620,285	10,8
     34,5166	     618,633	11,2
     34,5186	     617,806	11,1
     34,5205	         617	11,5
     34,5225	      615,88	12,3
     34,5244	     614,789	12,3
     34,5264	     612,477	12,7
     34,5283	     612,652	12,8
     34,5303	     613,215	13,2
     34,5323	     614,872	13,7
     34,5342	     613,051	13,9
     34,5362	     612,887	14,1
     34,5381	     610,619	13,8
     34,5401	      607,54	14,0
      34,542	     609,594	14,0
      34,544	     606,078	14,9
     34,5459	     604,173	14,8
     34,5479	     601,833	15,2
     34,5499	     600,206	15,2
     34,5518	     601,927	15,2
     34,5538	     599,897	15,6
     34,5557	     599,276	15,6
     34,5577	     597,283	16,0
     34,5596	     590,843	15,9
     34,5616	     587,051	15,0
     34,5635	      587,85	15,8
     34,5655	     584,047	16,0
     34,5674	     584,565	16,7
     34,5694	     585,905	16,6
     34,5714	     584,272	16,9
     34,5733	      584,34	18,1
     34,5753	     582,777	17,6
     34,5772	     583,422	17,8
     34,5792	     578,595	17,5
     34,5811	     579,958	17,6
     34,5831	     577,916	18,5
      34,585	      574,02	17,5
      34,587	      571,81	18,3
      34,589	     569,269	18,1
     34,5909	     566,882	18,0
     34,5929	     566,965	18,9
     34,5948	      571,88	19,0
     34,5968	      570,81	19,0
     34,5987	     567,925	19,7
     34,6007	     567,164	20,0
     34,6026	     562,881	20,0
     34,6046	     562,734	19,7
     34,6065	     560,776	20,4
     34,6085	     557,096	19,7
     34,6105	     553,111	19,7
     34,6124	     557,605	20,4
     34,6144	     557,855	21,6
     34,6163	     557,582	20,9
     34,6183	     554,612	21,4
     34,6202	      553,03	21,1
     34,6222	     552,293	21,0
     34,6241	     550,131	22,2
     34,6261	     548,498	21,8
     34,6281	      542,16	21,6
       34,63	     543,914	22,2
      34,632	     544,315	22,6
     34,6339	     541,202	22,1
     34,6359	     540,681	22,8
     34,6378	     541,238	22,5
     34,6398	     542,763	22,7
     34,6417	     541,085	23,1
     34,6437	      538,52	23,6
     34,6456	     533,279	22,9
     34,6476	     534,917	24,1
     34,6496	      533,03	23,8
     34,6515	     532,771	24,1
     34,6535	       530,3	23,8
     34,6554	     531,031	23,2
     34,6574	     528,698	24,4
     34,6593	     523,482	24,4
     34,6613	     522,142	24,2
     34,6632	     518,938	24,3
     34,6652	     521,865	24,7
     34,6672	     520,379	25,1
     34,6691	      520,24	25,3
     34,6711	     519,058	24,9
      34,673	     518,742	25,1
      34,675	     512,736	25,1
     34,6769	     512,884	25,5
     34,6789	     508,674	25,4
     34,6808	     511,576	26,2
     34,6828	     511,054	26,0
     34,6847	     510,018	26,4
     34,6867	     508,788	26,7
     34,6887	     505,708	26,0
