X-Data [Hz]	Piezo (M - Filtered) [mV]	Phase [Deg]	Piezo (M - Filtered) [mV]	Phase [Deg]	
	002: [07-09-24 17:03]		003: [07-09-24 17:06]	
        41,5	     1373,83	-28,1	     1395,07	-31,1
      41,502	      1408,7	-26,8	     1398,88	-28,9
     41,5039	     1427,16	-30,4	     1406,15	-30,7
     41,5059	     1430,46	-28,4	     1434,86	-28,6
     41,5078	     1414,92	-26,4	     1421,76	-30,5
     41,5098	     1425,42	-29,6	     1401,46	-27,4
     41,5117	     1436,35	-26,3	     1427,05	-29,1
     41,5137	     1449,74	-29,1	     1439,05	-27,1
     41,5156	      1453,8	-25,2	      1416,8	-29,1
     41,5176	     1426,41	-25,5	     1426,54	-30,7
     41,5196	     1426,87	-28,6	     1432,84	-26,3
     41,5215	     1450,92	-26,0	     1422,05	-28,9
     41,5235	     1456,29	-28,1	     1430,53	-26,6
     41,5254	     1456,06	-25,3	     1442,73	-32,4
     41,5274	     1442,08	-30,3	     1452,48	-28,4
     41,5293	     1450,13	-26,1	     1436,76	-28,3
     41,5313	     1450,65	-28,0	     1424,63	-30,5
     41,5332	     1455,49	-27,4	     1437,79	-26,8
     41,5352	     1478,99	-25,8	     1446,85	-31,0
     41,5371	     1452,21	-31,4	     1425,08	-28,6
     41,5391	     1452,21	-27,9	     1438,46	-28,2
     41,5411	     1452,59	-26,9	     1456,72	-28,2
      41,543	     1469,41	-27,2	     1459,67	-29,3
      41,545	      1471,8	-29,0	     1478,35	-30,0
     41,5469	     1457,69	-29,1	     1464,07	-26,8
     41,5489	     1477,95	-25,7	      1447,7	-27,7
     41,5508	     1479,71	-27,6	     1454,53	-26,2
     41,5528	     1473,82	-24,8	     1463,28	-28,1
     41,5547	      1478,7	-25,9	     1476,73	-27,1
     41,5567	     1473,16	-29,0	     1466,83	-25,9
     41,5587	     1481,53	-25,2	     1458,77	-27,2
     41,5606	     1509,47	-28,7	     1451,09	-25,7
     41,5626	     1475,99	-25,2	     1499,08	-31,4
     41,5645	     1478,84	-30,3	     1494,27	-29,5
     41,5665	     1492,77	-28,5	     1454,05	-27,6
     41,5684	     1479,11	-26,9	     1456,09	-29,3
     41,5704	      1479,3	-26,4	     1491,19	-25,8
     41,5723	     1497,91	-25,9	      1473,8	-27,4
     41,5743	     1505,49	-29,4	     1466,22	-27,2
     41,5762	     1514,56	-30,8	     1493,79	-28,1
     41,5782	     1486,47	-25,7	     1485,44	-24,0
     41,5802	     1484,72	-27,4	     1469,62	-25,8
     41,5821	     1509,86	-26,1	     1491,08	-30,1
     41,5841	     1509,86	-29,7	     1515,76	-26,5
      41,586	     1498,56	-24,8	     1519,13	-28,5
      41,588	     1492,77	-25,4	     1483,59	-26,0
     41,5899	     1508,58	-26,0	     1496,45	-29,4
     41,5919	     1525,64	-24,9	     1514,57	-30,0
     41,5938	     1505,29	-30,9	     1503,97	-26,8
     41,5958	     1509,93	-27,9	     1517,31	-28,5
     41,5978	     1524,15	-26,1	     1522,28	-26,4
     41,5997	     1526,68	-27,8	     1509,76	-26,2
     41,6017	     1518,88	-28,8	     1512,43	-29,3
     41,6036	     1522,58	-30,9	      1520,4	-27,2
     41,6056	     1533,97	-30,5	      1509,3	-29,9
     41,6075	     1534,94	-25,6	     1523,18	-24,4
     41,6095	     1527,21	-26,6	     1541,77	-24,7
     41,6114	     1532,82	-25,8	     1551,52	-26,6
     41,6134	     1544,81	-28,2	     1522,79	-26,2
     41,6153	     1547,62	-25,4	     1528,55	-29,7
     41,6173	     1543,84	-30,1	     1527,91	-27,6
     41,6193	     1531,69	-27,0	      1537,6	-30,1
     41,6212	     1554,52	-27,5	     1546,71	-27,7
     41,6232	     1562,53	-29,5	     1542,41	-27,7
     41,6251	     1558,52	-26,9	     1531,75	-28,4
     41,6271	     1574,91	-25,4	     1540,17	-24,7
      41,629	      1565,2	-28,5	     1541,32	-27,4
      41,631	     1539,92	-27,2	     1551,44	-25,8
     41,6329	     1556,44	-28,0	     1564,32	-26,3
     41,6349	     1550,93	-23,0	     1550,74	-25,9
     41,6369	     1562,54	-23,9	     1533,17	-24,5
     41,6388	     1552,32	-26,0	     1547,03	-28,1
     41,6408	     1572,22	-24,5	     1558,06	-26,4
     41,6427	     1583,55	-27,7	     1572,91	-28,5
     41,6447	     1575,66	-24,2	     1562,42	-28,9
     41,6466	     1579,15	-28,0	     1557,18	-26,2
     41,6486	     1570,02	-28,0	      1572,1	-29,0
     41,6505	      1586,3	-27,1	     1565,24	-26,0
     41,6525	     1597,42	-28,6	     1569,48	-28,7
     41,6544	     1578,55	-24,0	     1569,34	-25,4
     41,6564	     1568,49	-24,8	      1559,3	-25,8
     41,6584	      1585,5	-27,0	     1566,77	-27,4
     41,6603	     1602,59	-25,9	     1577,67	-25,1
     41,6623	     1603,26	-28,0	     1579,48	-27,6
     41,6642	     1612,74	-24,9	     1587,79	-26,0
     41,6662	     1619,82	-24,3	     1590,97	-26,5
     41,6681	     1594,89	-28,8	     1592,93	-27,8
     41,6701	      1587,1	-24,4	     1588,42	-25,3
      41,672	     1626,52	-29,5	     1600,35	-27,7
      41,674	     1617,37	-29,7	     1607,48	-30,1
      41,676	     1596,78	-24,2	     1596,35	-26,4
     41,6779	      1606,8	-26,3	     1604,13	-27,9
     41,6799	     1631,18	-26,4	     1603,55	-24,8
     41,6818	     1642,32	-26,7	     1609,24	-27,4
     41,6838	     1627,04	-24,7	     1611,34	-26,0
     41,6857	     1616,33	-24,0	     1620,88	-25,3
     41,6877	     1611,28	-25,9	     1614,33	-24,8
     41,6896	     1630,06	-24,7	     1617,82	-23,9
     41,6916	        1642	-29,4	     1621,67	-29,7
     41,6936	     1621,15	-27,1	     1623,94	-28,6
     41,6955	     1644,02	-25,4	     1627,95	-27,3
     41,6975	     1643,07	-26,0	     1644,99	-28,6
     41,6994	     1650,88	-23,4	     1653,66	-28,1
     41,7014	     1631,49	-27,7	     1639,46	-26,1
     41,7033	     1632,75	-24,0	     1643,01	-28,7
     41,7053	     1639,28	-23,6	     1630,45	-26,7
     41,7072	     1661,26	-26,2	     1658,15	-27,8
     41,7092	      1660,3	-24,0	     1661,48	-23,5
     41,7111	     1651,25	-24,7	     1662,09	-23,8
     41,7131	     1630,73	-27,3	     1633,59	-26,4
     41,7151	     1658,53	-23,8	     1635,22	-24,9
      41,717	     1675,66	-25,1	     1654,21	-29,7
      41,719	     1672,17	-24,1	     1667,37	-27,6
     41,7209	     1667,71	-26,3	      1671,9	-27,2
     41,7229	      1686,9	-26,6	     1668,85	-24,8
     41,7248	     1679,08	-24,8	     1666,28	-24,8
     41,7268	     1659,17	-24,6	     1663,86	-29,1
     41,7287	      1660,9	-23,3	     1678,07	-28,9
     41,7307	     1666,93	-22,0	     1652,46	-25,1
     41,7327	     1690,21	-28,3	     1661,94	-27,2
     41,7346	     1689,19	-26,7	     1687,01	-24,6
     41,7366	     1684,89	-25,2	     1689,79	-26,9
     41,7385	     1685,02	-26,8	     1684,79	-24,9
     41,7405	      1674,9	-23,4	     1673,43	-27,0
     41,7424	     1690,44	-26,1	     1691,56	-24,7
     41,7444	     1712,78	-23,3	     1687,26	-22,4
     41,7463	      1714,7	-23,7	     1695,54	-28,4
     41,7483	     1702,32	-24,6	     1700,88	-27,6
     41,7502	     1686,96	-22,0	     1688,53	-25,2
     41,7522	     1697,37	-28,0	     1693,24	-27,0
     41,7542	     1706,53	-25,2	     1706,89	-27,1
     41,7561	     1736,67	-24,6	     1694,97	-24,1
     41,7581	     1726,55	-26,2	     1709,02	-27,1
       41,76	     1707,09	-23,2	     1710,74	-26,1
      41,762	      1714,5	-24,3	     1722,14	-27,1
     41,7639	     1740,35	-26,4	     1715,72	-23,8
     41,7659	     1733,48	-24,5	     1713,17	-23,6
     41,7678	     1705,99	-25,3	     1732,12	-27,2
     41,7698	     1708,01	-21,6	     1731,22	-24,1
     41,7718	     1726,67	-19,7	     1717,83	-27,2
     41,7737	     1747,47	-25,7	     1714,91	-28,2
     41,7757	     1750,83	-24,4	     1726,03	-24,4
     41,7776	     1744,53	-25,7	     1744,14	-26,8
     41,7796	     1754,98	-26,7	     1743,99	-23,8
     41,7815	     1748,41	-22,7	     1736,36	-23,7
     41,7835	     1750,24	-27,4	      1734,8	-28,4
     41,7854	     1758,25	-23,9	      1753,7	-25,5
     41,7874	     1751,19	-25,8	      1762,5	-25,6
     41,7893	     1758,24	-28,4	     1781,38	-23,9
     41,7913	     1749,15	-21,6	     1772,88	-23,0
     41,7933	     1779,13	-21,0	     1769,66	-26,3
     41,7952	     1761,85	-25,8	     1741,85	-24,7
     41,7972	     1759,53	-21,5	     1751,67	-27,1
     41,7991	     1789,74	-27,2	     1766,96	-27,0
     41,8011	     1779,25	-25,4	      1773,9	-22,2
      41,803	     1772,09	-24,5	     1779,25	-23,6
      41,805	     1789,85	-25,1	     1778,26	-26,1
     41,8069	     1790,25	-23,9	     1766,89	-24,9
     41,8089	     1796,99	-27,3	     1785,19	-28,9
     41,8109	     1799,45	-27,5	     1801,57	-21,4
     41,8128	     1791,88	-21,4	     1797,11	-22,9
     41,8148	     1799,47	-23,8	     1799,91	-24,5
     41,8167	     1797,09	-24,2	     1798,29	-22,9
     41,8187	     1804,95	-23,1	     1803,48	-28,4
     41,8206	     1821,45	-25,7	     1801,75	-26,1
     41,8226	     1814,22	-24,4	     1792,49	-24,1
     41,8245	     1812,28	-24,6	     1800,15	-24,7
     41,8265	     1832,54	-23,9	     1810,27	-24,1
     41,8284	     1835,57	-25,0	     1818,16	-26,3
     41,8304	     1819,17	-26,6	     1837,81	-26,5
     41,8324	     1827,21	-22,0	     1845,69	-23,2
     41,8343	     1827,05	-23,0	     1823,18	-25,1
     41,8363	     1834,26	-22,9	     1821,71	-21,3
     41,8382	     1833,62	-21,5	     1841,52	-21,0
     41,8402	      1838,2	-26,2	     1846,89	-25,8
     41,8421	     1837,64	-25,5	      1847,3	-24,2
     41,8441	        1838	-21,8	      1839,2	-24,7
      41,846	     1854,82	-24,4	     1840,23	-26,2
      41,848	     1852,93	-25,6	     1846,89	-22,5
       41,85	     1826,54	-21,3	     1847,43	-25,1
     41,8519	     1836,68	-21,7	     1849,06	-23,4
     41,8539	     1882,16	-22,5	     1847,06	-23,5
     41,8558	        1892	-23,5	     1850,34	-27,0
     41,8578	     1862,93	-22,7	     1877,54	-22,5
     41,8597	     1864,96	-21,3	        1868	-22,4
     41,8617	     1862,97	-24,1	     1864,69	-22,5
     41,8636	      1884,2	-24,9	     1844,56	-23,1
     41,8656	     1887,87	-23,9	     1867,18	-27,0
     41,8675	      1875,2	-26,5	     1890,53	-27,0
     41,8695	      1887,9	-22,7	      1882,7	-24,0
     41,8715	     1900,96	-19,2	     1900,32	-24,5
     41,8734	     1912,76	-24,6	     1889,24	-21,2
     41,8754	     1907,52	-22,5	     1899,28	-21,5
     41,8773	     1909,14	-22,5	     1900,39	-25,3
     41,8793	     1911,52	-24,9	      1910,9	-23,6
     41,8812	     1928,49	-21,8	     1913,36	-24,7
     41,8832	     1922,38	-22,5	     1895,13	-27,2
     41,8851	     1926,87	-22,5	     1868,94	-23,1
     41,8871	     1919,29	-20,2	     1896,36	-24,8
     41,8891	     1915,77	-25,8	      1944,4	-23,2
      41,891	      1909,2	-25,7	     1935,59	-20,6
      41,893	     1932,75	-21,4	     1932,67	-24,9
     41,8949	     1948,59	-23,5	     1918,39	-25,2
     41,8969	     1936,48	-21,2	     1914,87	-25,1
     41,8988	     1938,96	-20,5	     1932,83	-25,4
     41,9008	     1951,62	-24,9	     1954,71	-23,0
     41,9027	     1938,01	-23,3	     1931,79	-21,9
     41,9047	      1945,8	-23,6	     1942,92	-25,0
     41,9066	     1964,99	-24,8	     1968,84	-23,1
     41,9086	     1968,23	-19,3	      1964,6	-22,7
     41,9106	      1977,9	-23,1	     1959,23	-22,2
     41,9125	     1959,47	-22,9	     1935,48	-21,0
     41,9145	     1951,05	-21,3	     1946,71	-23,0
     41,9164	     1986,16	-24,5	     1965,74	-23,4
     41,9184	     1985,77	-24,2	     1983,48	-23,6
     41,9203	     1985,37	-20,1	     1997,92	-27,1
     41,9223	     1983,83	-23,5	     1988,07	-20,5
     41,9242	      1981,5	-21,6	     1963,05	-22,6
     41,9262	     1981,47	-20,8	     1970,22	-22,1
     41,9282	     2014,93	-23,5	     1993,01	-19,8
     41,9301	     1994,93	-23,6	     2008,97	-24,0
     41,9321	     1998,67	-21,3	     2010,64	-24,1
      41,934	     1993,72	-23,2	     1997,14	-22,9
      41,936	     1997,24	-20,2	     2008,11	-24,3
     41,9379	     2027,68	-22,8	     2016,07	-21,2
     41,9399	     2019,59	-24,2	     2012,37	-17,7
     41,9418	     2023,31	-21,0	     2005,94	-21,6
     41,9438	     2029,15	-22,6	     2029,65	-22,0
     41,9457	     2027,53	-18,9	     2028,85	-20,8
     41,9477	      2028,6	-18,0	     2043,96	-25,1
     41,9497	      2026,5	-23,1	     2039,76	-24,6
     41,9516	     2045,58	-22,8	     2033,58	-22,1
     41,9536	     2066,33	-18,6	     2034,97	-24,6
     41,9555	     2086,78	-23,8	     2032,12	-20,3
     41,9575	     2065,56	-20,4	     2043,13	-20,9
     41,9594	     2041,13	-21,4	     2060,12	-22,7
     41,9614	     2041,08	-22,8	     2067,03	-22,0
     41,9633	     2050,87	-19,9	     2073,17	-23,2
     41,9653	     2072,63	-22,9	     2058,25	-23,0
     41,9673	      2062,1	-23,4	     2052,76	-22,2
     41,9692	      2065,5	-22,1	     2075,49	-22,5
     41,9712	     2080,59	-20,8	     2099,87	-21,0
     41,9731	      2090,2	-20,4	     2076,57	-18,6
     41,9751	     2085,63	-19,2	     2096,51	-24,2
      41,977	     2092,15	-17,7	     2099,79	-24,9
      41,979	     2091,32	-24,4	     2101,04	-20,7
     41,9809	     2092,23	-20,6	     2099,04	-22,7
     41,9829	     2108,47	-22,8	     2099,97	-18,6
     41,9848	     2104,48	-22,9	     2102,42	-20,0
     41,9868	     2118,44	-17,7	     2115,02	-23,4
     41,9888	     2117,44	-19,4	     2137,36	-22,3
     41,9907	     2123,65	-21,1	     2127,49	-20,9
     41,9927	     2132,06	-19,7	     2109,51	-22,8
     41,9946	     2137,51	-22,1	     2091,27	-21,8
     41,9966	     2141,18	-23,0	     2108,97	-22,6
     41,9985	     2151,19	-19,5	     2141,62	-22,3
     42,0005	     2137,61	-21,2	     2148,54	-19,6
     42,0024	     2131,48	-19,2	     2156,97	-22,1
     42,0044	     2128,88	-17,9	     2159,55	-20,0
     42,0064	     2163,09	-23,7	     2161,45	-20,4
     42,0083	     2166,37	-22,4	     2159,72	-22,0
     42,0103	     2189,34	-22,3	      2159,7	-21,9
     42,0122	     2178,28	-23,0	      2146,7	-19,3
     42,0142	      2170,4	-21,1	     2138,18	-21,8
     42,0161	     2190,87	-16,6	      2176,8	-20,4
     42,0181	     2202,99	-19,9	     2190,54	-19,2
       42,02	      2202,7	-19,6	     2197,45	-23,7
      42,022	     2188,08	-20,8	     2203,39	-21,0
     42,0239	     2167,91	-22,5	     2196,64	-19,6
     42,0259	     2174,86	-21,4	     2194,02	-22,5
     42,0279	     2198,63	-18,7	     2196,95	-19,7
     42,0298	     2206,07	-21,1	     2207,18	-18,9
     42,0318	     2210,79	-17,9	      2210,3	-20,4
     42,0337	     2205,23	-18,5	     2215,06	-20,0
     42,0357	     2226,77	-22,9	     2217,71	-19,0
     42,0376	     2235,75	-19,7	     2235,04	-21,8
     42,0396	     2246,09	-19,4	     2232,12	-19,5
     42,0415	     2245,46	-22,2	      2244,2	-20,7
     42,0435	     2249,72	-16,4	     2236,86	-20,7
     42,0455	        2262	-16,5	     2239,27	-19,2
     42,0474	     2251,39	-21,6	     2252,12	-20,2
     42,0494	     2235,98	-20,5	     2267,13	-22,1
     42,0513	     2254,92	-21,6	     2255,67	-19,6
     42,0533	      2260,3	-21,4	     2252,87	-20,9
     42,0552	     2262,52	-20,9	     2267,93	-20,9
     42,0572	     2272,04	-16,7	     2265,52	-19,7
     42,0591	     2291,02	-18,8	     2274,04	-18,7
     42,0611	     2292,15	-15,1	     2272,67	-19,8
      42,063	     2302,31	-17,1	     2279,86	-21,0
      42,065	      2307,7	-22,6	     2283,72	-18,9
      42,067	     2299,07	-20,3	     2317,93	-21,0
     42,0689	     2313,38	-19,1	     2339,75	-19,4
     42,0709	      2318,9	-19,1	     2330,02	-19,1
     42,0728	     2325,38	-15,6	     2332,25	-19,9
     42,0748	     2326,36	-16,0	     2320,17	-16,0
     42,0767	     2322,26	-21,0	     2313,16	-16,5
     42,0787	     2312,41	-19,2	     2311,18	-20,9
     42,0806	     2347,61	-20,8	     2318,17	-20,3
     42,0826	     2354,75	-20,8	     2349,76	-20,2
     42,0846	     2352,75	-19,6	     2345,94	-20,2
     42,0865	     2374,93	-17,8	     2343,08	-17,7
     42,0885	     2364,12	-17,6	     2365,43	-18,1
     42,0904	     2349,62	-17,6	     2379,19	-19,1
     42,0924	     2355,74	-15,2	     2378,95	-16,9
     42,0943	     2369,78	-21,8	     2387,91	-21,6
     42,0963	     2386,32	-18,5	     2377,44	-22,4
     42,0982	     2394,75	-18,2	     2388,74	-18,2
     42,1002	     2402,04	-21,2	     2398,01	-19,2
     42,1021	     2402,49	-18,5	     2409,28	-18,8
     42,1041	     2415,96	-15,8	     2415,84	-15,0
     42,1061	     2414,43	-17,3	     2405,03	-19,6
      42,108	     2415,75	-19,6	     2421,63	-18,8
       42,11	     2416,45	-16,1	     2425,93	-17,1
     42,1119	     2423,67	-19,5	     2425,19	-19,1
     42,1139	     2426,51	-21,3	     2421,22	-18,2
     42,1158	     2440,14	-15,3	     2424,39	-18,0
     42,1178	     2436,13	-15,9	     2429,07	-18,8
     42,1197	     2440,55	-16,1	     2444,62	-19,5
     42,1217	     2460,84	-16,8	     2448,82	-15,6
     42,1237	     2449,35	-18,5	     2448,75	-16,3
     42,1256	     2451,08	-17,8	     2463,62	-17,8
     42,1276	     2455,76	-16,4	     2483,58	-17,0
     42,1295	     2472,98	-17,4	     2469,52	-16,9
     42,1315	     2491,85	-18,8	     2472,68	-20,4
     42,1334	     2497,92	-15,7	      2469,1	-19,6
     42,1354	     2514,66	-17,1	     2487,32	-16,8
     42,1373	        2499	-18,3	     2484,74	-19,2
     42,1393	     2490,12	-15,0	     2481,31	-15,8
     42,1413	     2508,81	-16,7	      2498,1	-18,6
     42,1432	     2524,58	-17,8	     2503,79	-18,6
     42,1452	     2519,79	-17,2	     2535,32	-16,9
     42,1471	     2519,76	-17,3	     2548,12	-18,6
     42,1491	     2542,25	-18,3	     2566,75	-17,4
      42,151	     2535,84	-18,2	     2551,18	-15,4
      42,153	     2543,87	-14,4	     2548,42	-15,1
     42,1549	     2551,07	-14,6	     2558,24	-18,1
     42,1569	     2546,11	-16,1	     2556,22	-16,8
     42,1588	     2566,27	-16,2	     2553,21	-15,6
     42,1608	     2566,89	-17,6	     2568,56	-17,7
     42,1628	     2571,82	-18,7	     2572,41	-17,0
     42,1647	      2594,3	-13,6	     2584,16	-17,3
     42,1667	     2608,81	-17,0	     2604,01	-19,4
     42,1686	     2591,85	-16,2	      2602,8	-13,6
     42,1706	     2597,57	-13,0	     2605,21	-14,3
     42,1725	      2608,3	-15,7	     2609,17	-16,5
     42,1745	     2604,31	-16,9	     2618,43	-16,4
     42,1764	     2602,84	-16,5	     2609,59	-15,1
     42,1784	     2616,45	-15,9	     2607,94	-18,6
     42,1804	     2630,43	-20,4	     2631,59	-18,6
     42,1823	     2640,56	-18,0	     2650,94	-16,0
     42,1843	     2643,06	-13,1	     2638,59	-16,1
     42,1862	     2655,46	-14,5	     2643,43	-17,6
     42,1882	     2653,48	-14,9	      2653,4	-16,7
     42,1901	      2663,6	-12,4	     2666,93	-14,8
     42,1921	     2676,22	-18,4	      2673,7	-15,5
      42,194	     2669,29	-17,7	     2682,93	-13,9
      42,196	     2679,85	-14,1	     2695,11	-13,9
     42,1979	     2688,45	-16,2	     2709,63	-18,0
     42,1999	     2697,81	-16,3	     2707,37	-15,2
     42,2019	     2707,59	-14,0	     2719,37	-15,9
     42,2038	     2718,94	-13,8	     2739,59	-18,5
     42,2058	     2716,49	-14,4	     2745,84	-18,1
     42,2077	     2726,03	-12,9	     2742,57	-12,4
     42,2097	     2737,69	-10,5	      2755,8	-14,8
     42,2116	      2749,1	-12,9	     2744,85	-12,2
     42,2136	     2742,58	-15,0	     2751,68	-14,0
     42,2155	     2755,18	-14,7	     2765,97	-15,5
     42,2175	     2783,35	-16,7	     2768,38	-17,9
     42,2195	     2776,08	-17,8	     2764,46	-14,2
     42,2214	      2785,9	-11,9	     2784,55	-14,1
     42,2234	     2782,74	-12,9	     2778,73	-15,1
     42,2253	     2783,37	-14,2	     2786,83	-14,6
     42,2273	     2791,19	-13,2	     2802,08	-13,3
     42,2292	     2806,33	-12,6	     2792,42	-14,4
     42,2312	     2816,87	-14,6	     2804,21	-15,9
     42,2331	     2817,31	-12,6	     2814,67	-12,0
     42,2351	     2819,43	-12,7	     2816,11	-13,4
      42,237	     2810,52	-15,0	     2857,45	-14,0
      42,239	     2811,66	-15,4	     2875,34	-11,6
      42,241	     2836,52	-10,0	      2862,7	-16,1
     42,2429	     2852,04	-12,1	     2880,69	-15,5
