X-Data [Hz]	Piezo (M - Filtered) [mV]	Phase [Deg]	Piezo (M - Filtered) [mV]	Phase [Deg]	
	002: [07-09-24 17:10]		003: [07-09-24 17:13]	
        41,5	     1350,97	-24,8	     1441,92	-26,8
      41,502	     1388,03	-27,1	     1419,45	-24,9
     41,5039	     1411,07	-28,0	     1427,35	-26,3
     41,5059	     1428,11	-28,4	     1420,59	-25,1
     41,5078	     1409,41	-27,9	     1424,88	-27,3
     41,5098	        1429	-24,7	     1417,13	-25,0
     41,5117	     1435,58	-28,3	     1422,47	-28,0
     41,5137	     1449,58	-27,4	     1435,28	-26,8
     41,5156	     1436,46	-28,4	     1459,68	-29,2
     41,5176	     1447,06	-27,4	     1433,29	-27,8
     41,5196	     1451,83	-25,3	     1419,22	-27,3
     41,5215	     1442,58	-27,8	     1438,72	-27,2
     41,5235	     1450,69	-25,8	     1427,28	-25,4
     41,5254	     1453,22	-28,9	     1442,09	-29,6
     41,5274	      1461,9	-22,5	     1467,51	-25,8
     41,5293	     1453,37	-24,4	     1466,75	-25,6
     41,5313	     1460,32	-25,8	     1423,11	-24,3
     41,5332	     1441,54	-26,2	     1436,15	-25,3
     41,5352	     1468,88	-24,6	     1461,63	-28,5
     41,5371	     1478,96	-22,4	     1456,36	-26,9
     41,5391	     1469,28	-27,5	     1462,07	-26,9
     41,5411	     1449,29	-26,9	     1469,25	-28,0
      41,543	      1464,2	-28,0	     1476,35	-26,9
      41,545	     1481,45	-29,8	     1457,24	-26,2
     41,5469	     1469,59	-24,7	     1452,76	-25,9
     41,5489	      1477,9	-26,6	     1469,32	-27,9
     41,5508	     1457,96	-26,7	     1473,48	-23,4
     41,5528	     1471,95	-25,3	     1471,48	-25,2
     41,5547	     1496,12	-24,7	     1448,65	-24,5
     41,5567	     1486,34	-25,0	     1451,59	-24,7
     41,5587	     1465,24	-27,0	     1489,83	-29,0
     41,5606	     1470,93	-24,4	     1488,11	-23,0
     41,5626	     1497,59	-29,2	     1469,97	-26,2
     41,5645	     1484,81	-26,4	     1464,95	-26,8
     41,5665	     1502,31	-25,4	     1498,22	-25,8
     41,5684	     1499,46	-27,0	     1519,27	-29,6
     41,5704	     1485,03	-26,4	     1500,73	-24,6
     41,5723	     1493,59	-25,9	     1485,66	-28,1
     41,5743	     1507,11	-22,0	     1503,68	-26,5
     41,5762	     1513,52	-25,5	     1497,95	-27,6
     41,5782	     1507,35	-24,4	     1493,78	-28,1
     41,5802	     1497,65	-24,9	     1496,59	-23,4
     41,5821	     1504,41	-26,2	     1519,41	-27,3
     41,5841	     1509,75	-24,8	     1504,45	-26,4
      41,586	     1512,92	-26,8	     1508,81	-26,5
      41,588	     1506,31	-25,1	     1505,76	-29,8
     41,5899	     1526,44	-27,7	     1523,12	-23,9
     41,5919	     1543,72	-29,6	     1511,11	-26,9
     41,5938	        1519	-24,9	     1508,72	-26,0
     41,5958	     1524,72	-26,9	     1527,65	-26,1
     41,5978	     1508,13	-23,3	     1537,25	-28,4
     41,5997	     1534,51	-23,6	      1506,7	-24,1
     41,6017	     1528,64	-28,9	     1495,87	-26,9
     41,6036	     1520,86	-24,3	     1518,77	-23,9
     41,6056	     1525,62	-26,5	     1527,75	-22,8
     41,6075	     1539,94	-21,5	     1526,52	-26,0
     41,6095	     1543,55	-22,5	     1524,84	-24,7
     41,6114	     1531,84	-26,0	     1523,11	-28,7
     41,6134	     1536,69	-24,3	     1542,73	-24,9
     41,6153	     1546,69	-26,7	     1547,93	-26,2
     41,6173	     1562,74	-25,2	     1544,26	-27,0
     41,6193	     1537,12	-26,1	      1549,9	-24,8
     41,6212	     1534,36	-27,1	     1546,91	-27,9
     41,6232	     1555,74	-25,3	      1532,8	-23,1
     41,6251	     1550,34	-26,9	     1549,11	-24,2
     41,6271	     1561,47	-25,8	     1541,53	-24,1
      41,629	     1568,49	-26,2	     1538,61	-23,7
      41,631	     1557,24	-25,7	      1567,6	-28,7
     41,6329	     1557,76	-23,6	        1558	-26,2
     41,6349	     1576,47	-24,1	     1557,61	-26,2
     41,6369	     1575,97	-24,5	     1554,06	-25,4
     41,6388	     1560,02	-23,2	     1570,56	-23,7
     41,6408	     1566,11	-25,1	      1581,7	-27,7
     41,6427	     1582,89	-25,6	     1571,83	-27,3
     41,6447	     1573,04	-28,7	     1556,28	-25,8
     41,6466	     1573,86	-22,7	     1556,38	-28,1
     41,6486	     1598,07	-25,0	     1577,19	-22,1
     41,6505	     1597,19	-26,7	     1587,19	-25,8
     41,6525	      1577,2	-25,9	     1577,54	-24,5
     41,6544	     1582,83	-26,4	     1585,27	-28,3
     41,6564	     1602,16	-24,1	     1582,04	-27,2
     41,6584	     1604,89	-25,5	     1576,75	-23,1
     41,6603	     1585,45	-23,9	     1580,15	-26,3
     41,6623	     1597,11	-22,4	     1597,44	-24,8
     41,6642	     1611,37	-27,4	     1598,99	-27,5
     41,6662	     1606,44	-24,9	     1613,41	-30,1
     41,6681	     1596,94	-25,9	     1585,58	-23,2
     41,6701	     1601,77	-24,3	     1587,53	-23,1
      41,672	     1592,67	-22,5	     1611,23	-23,8
      41,674	     1594,61	-23,7	     1600,09	-21,7
      41,676	     1629,67	-23,9	     1626,11	-28,5
     41,6779	      1629,9	-24,9	     1611,51	-24,5
     41,6799	     1594,19	-25,5	     1604,36	-26,0
     41,6818	     1606,83	-21,6	     1609,42	-24,2
     41,6838	     1639,16	-25,6	     1623,13	-26,6
     41,6857	     1630,16	-25,6	     1620,52	-26,3
     41,6877	     1620,89	-23,6	     1607,05	-23,8
     41,6896	      1630,8	-27,3	     1619,27	-27,1
     41,6916	     1639,65	-23,5	     1644,51	-23,8
     41,6936	     1645,97	-26,3	     1617,96	-21,8
     41,6955	     1638,44	-24,2	     1606,84	-24,5
     41,6975	     1640,23	-23,8	     1632,96	-23,3
     41,6994	     1647,27	-26,1	     1646,52	-23,3
     41,7014	     1630,49	-20,4	     1655,43	-25,4
     41,7033	     1659,47	-23,6	     1655,97	-22,3
     41,7053	     1635,48	-22,0	     1624,98	-25,3
     41,7072	      1643,2	-21,5	     1635,59	-25,3
     41,7092	     1658,59	-26,8	     1668,26	-24,7
     41,7111	     1655,81	-25,2	     1666,84	-24,7
     41,7131	     1676,73	-26,8	     1652,56	-23,5
     41,7151	     1680,88	-25,4	     1644,31	-24,3
      41,717	     1666,34	-22,1	     1659,05	-21,6
      41,719	     1665,25	-23,6	     1656,64	-22,2
     41,7209	     1675,23	-22,9	     1673,12	-25,9
     41,7229	     1675,66	-22,6	     1678,45	-23,2
     41,7248	     1674,63	-24,0	     1668,83	-27,0
     41,7268	     1663,52	-23,0	      1668,5	-25,1
     41,7287	     1659,98	-25,6	     1655,15	-23,2
     41,7307	     1666,63	-23,0	     1668,94	-25,9
     41,7327	     1685,62	-22,5	     1684,32	-24,9
     41,7346	      1707,4	-27,2	      1680,8	-25,4
     41,7366	      1686,1	-21,5	     1688,33	-26,9
     41,7385	     1690,45	-22,6	     1697,52	-23,9
     41,7405	     1692,63	-23,1	     1693,35	-24,3
     41,7424	     1692,26	-23,9	      1698,4	-22,2
     41,7444	     1687,33	-24,4	     1693,06	-21,8
     41,7463	     1714,09	-22,1	     1699,93	-25,7
     41,7483	     1717,73	-23,5	     1705,83	-24,3
     41,7502	     1690,68	-25,5	     1725,85	-24,8
     41,7522	     1687,92	-21,7	     1716,38	-25,0
     41,7542	     1704,84	-25,3	      1691,1	-22,4
     41,7561	     1714,73	-25,7	     1707,54	-24,8
     41,7581	     1727,87	-22,7	     1720,67	-24,6
       41,76	      1724,9	-25,8	     1735,07	-25,6
      41,762	     1718,37	-21,4	     1736,34	-26,2
     41,7639	     1729,36	-20,5	     1729,79	-23,6
     41,7659	     1726,43	-24,6	     1726,93	-24,2
     41,7678	     1723,72	-23,5	     1732,96	-22,4
     41,7698	     1732,41	-26,0	     1723,22	-21,1
     41,7718	     1731,47	-21,8	     1728,18	-26,7
     41,7737	     1728,24	-22,6	     1737,82	-25,2
     41,7757	     1733,46	-23,0	     1736,18	-24,0
     41,7776	      1745,8	-21,6	     1743,02	-26,3
     41,7796	     1737,75	-22,6	      1760,9	-21,0
     41,7815	     1755,61	-23,6	     1756,62	-22,5
     41,7835	     1766,44	-22,8	     1755,98	-23,1
     41,7854	     1771,93	-24,5	     1747,77	-22,3
     41,7874	     1751,26	-25,4	     1760,25	-27,1
     41,7893	     1749,33	-22,3	      1769,8	-25,0
     41,7913	     1768,04	-24,4	     1774,51	-24,2
     41,7933	     1779,13	-22,9	     1767,01	-22,8
     41,7952	     1791,98	-25,5	     1757,46	-23,7
     41,7972	      1793,6	-23,3	     1769,44	-26,4
     41,7991	     1778,73	-22,0	     1772,76	-25,8
     41,8011	     1772,66	-23,7	     1774,09	-22,8
      41,803	      1783,6	-23,2	     1791,59	-24,6
      41,805	     1783,46	-24,6	     1789,28	-20,3
     41,8069	      1771,3	-26,3	     1797,96	-22,2
     41,8089	     1792,23	-20,0	     1792,77	-24,0
     41,8109	     1810,81	-20,4	      1786,3	-22,7
     41,8128	      1819,1	-23,6	     1790,97	-21,9
     41,8148	     1792,67	-21,7	     1799,17	-24,3
     41,8167	     1792,51	-25,4	     1819,72	-23,2
     41,8187	     1802,24	-24,3	     1811,55	-24,4
     41,8206	     1803,21	-22,0	     1813,96	-22,5
     41,8226	     1832,99	-23,6	     1802,26	-22,7
     41,8245	     1819,15	-23,7	     1805,66	-25,9
     41,8265	     1816,75	-21,2	     1806,21	-20,8
     41,8284	     1836,25	-22,3	     1814,98	-24,3
     41,8304	     1831,19	-22,5	     1841,17	-20,7
     41,8324	      1837,8	-23,7	     1842,23	-19,0
     41,8343	     1838,46	-23,9	     1840,58	-26,1
     41,8363	     1824,91	-22,5	     1835,35	-24,4
     41,8382	     1813,68	-23,6	     1834,12	-24,8
     41,8402	     1813,33	-20,5	     1865,08	-24,4
     41,8421	     1827,22	-22,3	     1819,05	-19,8
     41,8441	     1846,34	-21,8	     1831,87	-22,2
      41,846	     1856,81	-19,8	     1844,31	-24,3
      41,848	     1873,46	-21,9	     1852,38	-20,3
       41,85	     1861,19	-23,8	     1865,27	-21,1
     41,8519	     1847,15	-20,8	     1863,86	-24,1
     41,8539	     1845,92	-24,6	     1857,28	-23,3
     41,8558	     1851,81	-21,1	     1864,67	-25,8
     41,8578	     1880,46	-22,2	     1870,09	-24,0
     41,8597	      1881,2	-24,3	     1864,38	-20,6
     41,8617	     1869,27	-21,4	     1863,41	-22,1
     41,8636	     1882,81	-22,8	     1875,81	-23,7
     41,8656	     1889,58	-20,4	     1876,51	-23,8
     41,8675	     1900,47	-19,8	     1878,55	-23,1
     41,8695	     1895,39	-22,9	     1893,11	-22,5
     41,8715	     1911,24	-21,9	     1890,06	-22,8
     41,8734	     1898,73	-21,4	     1905,32	-24,4
     41,8754	     1898,56	-22,6	     1903,49	-19,7
     41,8773	     1905,71	-20,0	     1903,53	-21,0
     41,8793	     1900,49	-19,2	     1912,83	-23,4
     41,8812	     1895,43	-25,3	     1922,71	-20,9
     41,8832	     1882,52	-23,5	      1919,9	-22,5
     41,8851	     1912,31	-21,3	     1918,37	-24,3
     41,8871	     1936,26	-19,4	     1922,12	-20,0
     41,8891	     1938,88	-20,5	     1917,66	-23,3
      41,891	     1926,31	-20,3	     1920,34	-21,0
      41,893	     1917,58	-22,5	     1932,58	-21,2
     41,8949	     1925,13	-19,1	      1926,3	-20,9
     41,8969	     1940,51	-24,2	     1927,46	-20,9
     41,8988	      1950,8	-23,7	     1915,39	-23,7
     41,9008	     1945,92	-21,5	     1935,34	-21,8
     41,9027	     1936,47	-22,9	     1934,98	-19,1
     41,9047	     1929,58	-18,4	     1943,21	-21,5
     41,9066	      1947,8	-18,4	     1949,94	-22,4
     41,9086	     1952,04	-23,8	     1962,99	-21,2
     41,9106	     1945,97	-22,3	     1971,05	-25,4
     41,9125	      1974,2	-22,8	     1981,07	-22,6
     41,9145	     1975,87	-24,1	      1954,7	-20,6
     41,9164	     1980,82	-18,8	     1974,97	-22,7
     41,9184	     1986,78	-20,8	     1985,39	-20,3
     41,9203	     1976,61	-20,3	     1988,79	-19,2
     41,9223	      1972,4	-18,9	     1999,74	-23,6
     41,9242	     1991,06	-24,9	     2005,99	-20,4
     41,9262	     1993,08	-23,1	     1994,68	-22,9
     41,9282	     2007,77	-20,5	     1983,35	-22,9
     41,9301	     1990,08	-21,1	     1972,62	-20,7
     41,9321	      2019,6	-18,8	     2005,47	-21,9
      41,934	     2036,18	-18,2	     2038,46	-19,1
      41,936	     2022,19	-20,6	     2033,08	-18,7
     41,9379	     2017,21	-20,5	     2015,15	-21,2
     41,9399	     2008,23	-21,1	     2039,26	-21,0
     41,9418	     2028,15	-24,9	     2023,24	-19,4
     41,9438	     2010,04	-22,4	      2017,8	-22,7
     41,9457	     2023,13	-19,7	     2021,29	-22,3
     41,9477	     2038,58	-20,3	     2021,01	-21,0
     41,9497	      2039,9	-18,9	     2014,67	-22,5
     41,9516	     2039,39	-19,6	     2033,63	-21,4
     41,9536	     2039,18	-21,6	     2057,76	-21,4
     41,9555	     2051,93	-20,0	     2077,98	-23,6
     41,9575	     2040,76	-18,7	     2073,77	-17,1
     41,9594	     2042,67	-21,8	     2057,83	-19,1
     41,9614	     2059,31	-17,2	     2057,58	-21,5
     41,9633	     2067,89	-20,0	     2041,45	-19,2
     41,9653	     2057,62	-18,9	     2051,04	-20,1
     41,9673	     2078,07	-17,2	     2070,47	-21,5
     41,9692	     2120,03	-24,0	     2079,74	-19,7
     41,9712	      2100,8	-22,3	     2086,16	-20,0
     41,9731	     2078,74	-21,8	      2103,6	-21,6
     41,9751	      2094,8	-20,8	     2108,33	-20,4
      41,977	      2085,7	-20,2	     2103,73	-20,2
      41,979	     2092,23	-17,2	     2081,46	-21,4
     41,9809	     2103,77	-18,7	     2092,74	-17,7
     41,9829	     2107,63	-19,1	     2098,89	-19,7
     41,9848	      2116,7	-19,4	     2140,03	-20,6
     41,9868	     2121,12	-21,6	     2126,44	-18,0
     41,9888	     2114,47	-20,2	     2122,38	-22,4
     41,9907	     2117,88	-18,3	     2137,01	-21,9
     41,9927	     2144,79	-19,8	     2109,61	-19,6
     41,9946	     2138,02	-20,9	     2112,26	-19,9
     41,9966	     2121,68	-19,3	     2129,58	-19,8
     41,9985	     2138,82	-17,8	     2137,33	-17,0
     42,0005	     2149,96	-19,7	      2152,6	-22,5
     42,0024	     2141,16	-18,4	     2146,16	-19,9
     42,0044	     2143,11	-21,2	     2131,53	-19,9
     42,0064	     2147,53	-21,7	     2146,27	-21,7
     42,0083	     2162,16	-19,5	     2130,01	-18,4
     42,0103	     2170,79	-19,9	     2145,24	-18,6
     42,0122	     2161,35	-19,3	     2176,39	-20,8
     42,0142	     2167,72	-17,5	      2171,2	-18,4
     42,0161	     2174,96	-21,2	     2185,21	-18,6
     42,0181	     2153,08	-19,1	     2192,38	-21,6
       42,02	     2192,03	-19,3	     2207,32	-19,8
      42,022	     2201,92	-21,8	     2189,22	-18,7
     42,0239	      2196,3	-18,7	     2196,47	-21,0
     42,0259	     2196,68	-17,2	     2204,19	-17,4
     42,0279	     2188,45	-19,5	      2221,5	-17,6
     42,0298	     2200,66	-17,8	     2219,14	-20,7
     42,0318	     2209,52	-19,8	     2213,47	-21,1
     42,0337	     2230,92	-21,5	     2220,51	-17,9
     42,0357	     2236,63	-18,0	      2232,9	-21,8
     42,0376	     2230,49	-18,9	     2238,98	-20,8
     42,0396	     2228,83	-19,7	     2230,18	-20,2
     42,0415	     2246,67	-16,6	     2244,54	-20,1
     42,0435	     2239,95	-19,1	     2236,85	-16,0
     42,0455	     2250,03	-19,2	     2235,24	-18,4
     42,0474	     2270,21	-16,4	     2269,77	-19,8
     42,0494	     2265,95	-20,7	     2270,93	-17,5
     42,0513	     2257,84	-21,0	     2275,43	-16,0
     42,0533	     2250,69	-16,4	     2289,99	-20,4
     42,0552	      2267,3	-17,4	     2280,26	-19,9
     42,0572	     2263,11	-18,8	     2259,82	-16,3
     42,0591	     2272,82	-17,1	     2270,62	-23,0
     42,0611	     2286,67	-14,6	      2287,2	-21,0
      42,063	     2303,12	-18,8	     2298,57	-18,2
      42,065	     2290,48	-18,4	     2302,07	-18,5
      42,067	     2305,35	-19,0	     2309,35	-20,5
     42,0689	     2308,34	-21,2	     2310,73	-15,5
     42,0709	     2304,94	-16,0	     2303,42	-16,3
     42,0728	     2324,51	-16,1	     2323,31	-18,9
     42,0748	      2311,2	-19,3	     2318,05	-16,4
     42,0767	     2313,49	-17,9	     2324,37	-20,7
     42,0787	     2315,51	-15,8	     2342,51	-20,0
     42,0806	     2333,17	-18,6	     2345,86	-15,7
     42,0826	     2329,86	-16,1	     2354,77	-16,8
     42,0846	      2348,2	-16,3	     2352,35	-17,0
     42,0865	      2337,1	-20,2	     2357,14	-17,0
     42,0885	     2328,18	-18,6	     2370,07	-16,8
     42,0904	     2337,96	-17,2	     2363,14	-19,9
     42,0924	     2359,84	-18,3	     2375,92	-18,0
     42,0943	     2369,83	-12,7	     2383,39	-20,4
     42,0963	      2388,6	-12,8	      2408,9	-21,1
     42,0982	     2384,69	-18,4	     2419,18	-16,3
     42,1002	     2389,64	-16,6	     2410,34	-16,7
     42,1021	     2381,07	-15,8	     2401,85	-19,3
     42,1041	     2406,38	-20,5	      2398,6	-16,7
     42,1061	     2392,31	-18,8	     2402,36	-16,3
      42,108	     2407,94	-15,4	     2390,19	-18,8
       42,11	     2413,21	-16,6	     2416,08	-16,4
     42,1119	     2403,33	-18,5	     2432,72	-16,0
     42,1139	     2397,48	-15,6	     2459,13	-19,1
     42,1158	      2420,1	-16,1	     2458,71	-18,5
     42,1178	     2437,27	-17,0	     2456,91	-15,7
     42,1197	     2432,23	-15,0	     2452,55	-17,1
     42,1217	     2414,24	-16,2	     2460,18	-15,7
     42,1237	     2439,47	-18,0	     2463,96	-14,5
     42,1256	     2450,53	-17,8	     2490,83	-18,6
     42,1276	     2469,85	-17,9	      2483,2	-18,4
     42,1295	     2475,35	-18,3	      2478,4	-16,2
     42,1315	     2468,49	-13,6	     2477,92	-17,4
     42,1334	     2472,14	-12,2	     2488,91	-17,7
     42,1354	     2478,17	-18,5	     2503,46	-15,5
     42,1373	     2475,57	-14,2	     2502,15	-18,7
     42,1393	     2490,09	-16,3	      2503,8	-17,7
     42,1413	     2483,18	-17,0	     2501,24	-14,4
     42,1432	     2508,22	-15,3	     2502,96	-14,8
     42,1452	     2509,01	-14,7	     2525,26	-18,0
     42,1471	     2513,18	-17,0	     2534,12	-15,9
     42,1491	     2526,14	-14,7	     2547,08	-14,5
      42,151	      2530,6	-15,0	     2565,48	-17,2
      42,153	     2534,84	-16,9	     2576,62	-15,4
     42,1549	     2542,04	-15,4	     2574,14	-15,1
     42,1569	     2549,23	-14,5	     2559,09	-16,8
     42,1588	     2551,01	-14,8	     2565,38	-15,9
     42,1608	     2572,67	-17,1	     2593,25	-14,8
     42,1628	     2562,97	-15,7	      2589,2	-16,7
     42,1647	     2564,71	-12,5	     2585,26	-17,7
     42,1667	     2590,39	-17,2	     2600,09	-13,2
     42,1686	     2580,75	-16,9	     2588,39	-13,2
     42,1706	     2587,55	-12,2	     2598,05	-15,6
     42,1725	     2603,97	-16,5	     2621,18	-14,7
     42,1745	     2602,33	-12,9	     2646,48	-16,6
     42,1764	     2618,91	-11,9	     2650,32	-15,7
     42,1784	      2617,5	-15,4	     2635,99	-14,4
     42,1804	      2624,4	-15,0	     2627,35	-15,7
     42,1823	        2637	-13,2	     2632,75	-16,4
     42,1843	     2651,69	-13,4	     2647,79	-16,1
     42,1862	     2647,21	-15,9	     2656,33	-13,3
     42,1882	     2656,18	-15,4	     2659,26	-16,1
     42,1901	      2661,4	-16,5	     2666,78	-15,7
     42,1921	     2653,71	-16,6	     2651,11	-12,4
      42,194	     2643,29	-11,4	     2671,24	-13,4
      42,196	     2668,82	-14,7	     2705,64	-15,1
     42,1979	     2679,24	-15,3	     2705,03	-14,4
     42,1999	     2685,77	-12,7	     2707,99	-16,2
     42,2019	     2680,75	-13,1	     2716,75	-14,6
     42,2038	     2685,17	-15,2	     2727,88	-15,7
     42,2058	     2678,49	-14,4	     2722,45	-14,3
     42,2077	     2700,73	-11,7	     2733,03	-15,3
     42,2097	     2707,95	-15,6	     2736,67	-13,4
     42,2116	     2716,78	-15,6	     2756,22	-13,6
     42,2136	     2725,48	-10,4	     2768,43	-13,7
     42,2155	     2720,91	-11,8	     2756,33	-14,1
     42,2175	     2734,09	-14,2	     2782,11	-11,8
     42,2195	     2746,37	-14,3	      2775,5	-11,2
     42,2214	     2770,48	-11,7	     2799,38	-17,8
     42,2234	     2770,48	-12,2	     2818,96	-14,2
     42,2253	     2769,84	-13,2	     2799,59	-13,8
     42,2273	     2769,43	-11,9	     2795,43	-14,5
     42,2292	     2792,75	-15,6	     2786,04	-13,5
     42,2312	     2812,73	-14,6	     2796,77	-13,0
     42,2331	     2842,86	-10,9	     2812,06	-13,6
     42,2351	     2846,62	-12,7	     2825,82	-14,5
      42,237	      2813,8	-12,5	     2836,64	-11,6
      42,239	     2818,65	-11,3	     2847,24	-10,4
      42,241	     2843,94	-12,1	     2857,36	-12,7
     42,2429	     2846,64	-13,1	      2859,7	-10,9
