X-Data [Hz]	Piezo (M - Filtered) [mV]	Phase [Deg]	
	002: [07-05-24 16:54]	
       41,25	     474,403	-59,7
     41,2522	     469,285	-54,1
     41,2544	     486,623	-70,6
     41,2566	     483,275	-66,7
     41,2588	     480,187	-53,1
      41,261	     470,497	-60,3
     41,2632	     506,679	-76,1
     41,2654	     472,821	-56,3
     41,2676	     469,662	-61,3
     41,2698	     494,191	-75,2
      41,272	     488,072	-59,4
     41,2742	     489,382	-72,3
     41,2764	      484,18	-62,5
     41,2786	     466,977	-48,1
     41,2808	     513,415	-74,6
      41,283	     489,124	-65,2
     41,2852	     466,873	-55,1
     41,2874	     498,338	-68,0
     41,2896	     484,521	-52,4
     41,2918	     492,704	-70,6
      41,294	      489,98	-67,1
     41,2962	     468,167	-49,0
     41,2984	     493,328	-72,3
     41,3006	      489,13	-65,5
     41,3028	     479,116	-51,2
      41,305	     510,379	-73,0
     41,3072	     507,018	-63,1
     41,3094	     465,169	-54,2
     41,3116	     473,577	-58,0
     41,3138	     484,972	-48,3
      41,316	     520,709	-74,2
     41,3182	     484,308	-66,5
     41,3204	     481,884	-47,5
     41,3226	     518,909	-75,0
     41,3248	     496,004	-59,1
      41,327	     490,729	-52,5
     41,3292	     508,834	-73,8
     41,3314	     504,574	-63,6
     41,3336	     485,226	-54,5
     41,3358	     507,044	-64,8
      41,338	     526,584	-72,7
     41,3402	      511,26	-72,7
     41,3424	     504,939	-58,2
     41,3446	     493,408	-55,2
     41,3468	     530,269	-73,0
      41,349	     511,098	-58,7
     41,3512	     498,405	-55,1
     41,3534	     513,897	-66,9
     41,3556	     515,363	-65,5
     41,3578	     496,219	-52,9
       41,36	      528,17	-71,6
     41,3622	     510,318	-60,6
     41,3644	     501,196	-51,6
     41,3666	     497,246	-55,5
     41,3688	     501,021	-64,6
      41,371	     551,266	-72,9
     41,3732	     509,674	-51,8
     41,3754	     500,804	-66,7
     41,3776	     522,282	-68,9
     41,3798	     507,212	-55,5
      41,382	     525,896	-62,4
     41,3842	      530,22	-68,9
     41,3864	     509,594	-52,8
     41,3886	     522,777	-60,8
     41,3908	     503,159	-52,0
      41,393	     519,128	-69,8
     41,3952	     540,335	-67,4
     41,3974	      515,18	-49,6
     41,3996	     525,051	-70,0
     41,4018	     531,615	-65,4
      41,404	     494,212	-48,6
     41,4062	     541,668	-69,5
     41,4084	     534,123	-60,9
     41,4106	     505,575	-52,0
     41,4128	     527,982	-58,1
      41,415	     513,084	-55,0
     41,4172	     535,867	-69,4
     41,4194	     532,521	-56,7
     41,4216	     504,006	-55,2
     41,4238	     564,517	-71,3
      41,426	     516,557	-54,8
     41,4282	     519,743	-56,4
     41,4304	     542,289	-75,5
     41,4326	     513,883	-60,1
     41,4347	     539,585	-66,0
      41,437	     535,552	-53,1
     41,4391	     556,903	-68,2
     41,4413	     534,881	-60,4
     41,4436	     517,411	-53,1
     41,4457	     541,396	-69,3
     41,4479	     540,234	-58,7
     41,4501	     527,273	-57,7
     41,4523	         550	-70,1
     41,4545	     543,823	-59,5
     41,4567	     560,559	-73,4
     41,4589	     528,933	-52,9
     41,4611	     533,211	-61,4
     41,4633	     574,488	-66,4
     41,4655	     521,843	-49,9
     41,4677	     542,455	-67,2
     41,4699	     564,218	-63,9
     41,4721	      519,94	-48,8
     41,4743	     545,916	-73,0
     41,4765	     549,755	-60,8
     41,4787	     521,395	-52,8
     41,4809	     585,211	-71,2
     41,4831	     545,964	-53,1
     41,4853	      545,34	-61,4
     41,4875	      535,23	-48,8
     41,4897	     549,699	-62,7
     41,4919	     577,731	-59,4
     41,4941	      549,99	-53,8
     41,4963	     566,263	-70,1
     41,4985	     557,222	-55,2
     41,5007	     548,753	-58,6
     41,5029	     588,285	-66,1
     41,5051	     535,162	-50,4
     41,5073	      543,53	-64,4
     41,5095	     587,454	-57,6
     41,5117	     560,287	-54,3
     41,5139	     559,039	-58,6
     41,5161	     545,979	-56,4
     41,5183	     573,264	-67,5
     41,5205	     550,991	-52,9
     41,5227	     559,522	-58,6
     41,5249	     586,772	-66,3
     41,5271	      559,72	-53,5
     41,5293	     571,142	-63,9
     41,5315	     568,204	-62,4
     41,5337	     565,142	-50,1
     41,5359	     593,165	-66,4
     41,5381	     555,014	-54,8
     41,5403	     585,506	-70,3
     41,5425	     560,231	-51,0
     41,5447	     572,634	-65,0
     41,5469	     602,801	-68,8
     41,5491	     558,173	-48,0
     41,5513	     565,491	-66,8
     41,5535	     603,695	-63,8
     41,5557	     562,497	-49,7
     41,5579	     603,196	-72,9
     41,5601	     576,302	-61,0
     41,5623	     611,398	-64,4
     41,5645	     566,141	-49,3
     41,5667	     587,043	-71,3
     41,5689	     573,219	-58,2
     41,5711	     585,173	-51,7
     41,5733	     620,964	-74,7
     41,5755	     571,938	-52,4
     41,5777	     569,413	-61,2
     41,5799	     614,998	-64,6
     41,5821	      581,88	-48,2
     41,5843	     613,159	-71,6
     41,5865	     589,743	-55,0
     41,5887	     589,385	-58,5
     41,5909	     628,161	-68,3
     41,5931	     615,941	-70,2
     41,5953	     606,053	-60,0
     41,5975	     577,059	-50,2
     41,5997	     614,956	-72,3
     41,6019	     580,579	-55,0
     41,6041	     602,839	-62,9
     41,6063	     617,583	-61,4
     41,6085	     584,037	-54,0
     41,6107	     595,394	-63,1
     41,6129	      619,74	-55,1
     41,6151	      619,74	-65,3
     41,6173	     612,963	-60,7
     41,6195	     615,984	-66,8
     41,6217	     618,791	-60,5
     41,6239	     600,329	-51,2
     41,6261	     648,753	-65,1
     41,6283	     612,035	-55,6
     41,6305	      593,59	-62,0
     41,6327	      637,88	-64,7
     41,6349	     602,738	-53,1
     41,6371	     630,076	-66,8
     41,6393	     618,076	-57,1
     41,6415	     634,327	-67,8
     41,6437	     606,677	-50,7
     41,6459	     625,248	-65,7
     41,6481	     619,587	-56,7
     41,6503	     611,246	-58,5
     41,6525	       640,6	-67,2
     41,6547	     616,315	-53,1
     41,6569	     620,087	-57,9
     41,6591	     651,548	-63,0
     41,6613	     603,157	-53,6
     41,6635	     627,512	-66,3
     41,6657	     624,485	-61,1
     41,6679	     640,546	-62,9
     41,6701	     612,741	-50,1
     41,6723	     639,217	-64,8
     41,6745	     638,634	-57,0
     41,6767	      613,72	-58,5
     41,6789	     671,311	-63,5
     41,6811	     619,849	-48,1
     41,6833	     647,103	-68,6
     41,6855	     632,849	-49,0
     41,6877	     638,816	-56,9
     41,6899	     651,148	-60,8
     41,6921	     635,632	-52,9
     41,6943	     663,424	-65,2
     41,6965	     633,595	-52,3
     41,6987	     662,582	-61,4
     41,7009	     631,007	-53,0
     41,7031	     670,365	-64,6
     41,7053	     646,004	-51,2
     41,7075	     640,903	-61,4
     41,7097	     672,244	-55,1
     41,7119	     649,834	-54,4
     41,7141	     691,062	-65,9
     41,7163	     637,148	-47,8
     41,7185	      665,07	-62,9
     41,7207	     660,346	-57,4
     41,7229	     649,343	-50,9
     41,7251	     678,357	-68,2
     41,7273	     658,056	-65,3
     41,7295	     681,962	-59,8
     41,7317	     635,375	-49,2
     41,7339	     674,535	-65,9
     41,7361	     646,452	-48,9
     41,7383	     672,177	-60,0
     41,7405	       676,5	-57,6
     41,7427	      655,34	-53,9
     41,7449	      693,14	-65,5
     41,7471	     658,438	-49,5
     41,7493	      678,47	-66,5
     41,7515	     662,126	-51,2
     41,7537	     695,359	-62,5
     41,7559	     660,095	-44,9
     41,7581	     709,597	-65,5
     41,7603	     673,227	-48,8
     41,7625	     663,645	-60,7
     41,7647	     693,049	-63,2
     41,7669	     675,304	-46,7
     41,7691	     708,446	-62,9
     41,7713	     678,375	-54,7
     41,7735	     663,532	-59,8
     41,7757	     697,922	-53,1
     41,7779	     729,795	-60,6
     41,7801	      689,66	-52,6
     41,7823	      681,25	-54,9
     41,7845	     714,157	-60,5
     41,7867	     676,552	-49,9
     41,7889	     724,761	-64,8
     41,7911	     677,748	-46,3
     41,7933	     691,738	-60,7
     41,7955	     702,409	-50,7
     41,7977	     719,103	-65,0
     41,7999	     695,563	-48,5
     41,8021	       711,9	-63,6
     41,8043	     703,495	-58,1
     41,8064	     669,596	-51,0
     41,8087	     747,179	-59,7
     41,8109	     706,426	-47,7
      41,813	     715,833	-65,1
     41,8153	     692,142	-55,1
     41,8174	     725,763	-62,9
     41,8196	     706,303	-46,9
     41,8218	     739,726	-64,7
      41,824	     704,588	-49,3
     41,8262	     718,681	-63,4
     41,8284	     740,592	-56,1
     41,8306	      718,44	-48,7
     41,8328	     744,893	-68,4
      41,835	     722,884	-60,0
     41,8372	     739,414	-55,2
     41,8394	     701,822	-49,7
     41,8416	     755,051	-66,2
     41,8438	     719,138	-49,8
      41,846	     752,628	-62,3
     41,8482	     720,282	-48,7
     41,8504	     740,457	-58,6
     41,8526	     764,044	-54,8
     41,8548	     724,827	-49,1
      41,857	     774,179	-66,1
     41,8592	     722,644	-43,6
     41,8614	     772,673	-61,9
     41,8636	     746,044	-51,2
     41,8658	      756,61	-62,4
      41,868	     740,264	-48,9
     41,8702	     780,405	-59,1
     41,8724	     721,682	-49,1
     41,8746	     762,295	-64,3
     41,8768	     740,812	-46,5
      41,879	     745,573	-57,0
     41,8812	     782,883	-59,3
     41,8834	     750,314	-48,1
     41,8856	     794,619	-61,4
     41,8878	     742,451	-46,9
       41,89	     763,772	-52,8
     41,8922	     748,902	-52,3
     41,8944	     785,515	-58,8
     41,8966	     754,558	-49,3
     41,8988	     808,643	-64,6
      41,901	     742,537	-45,3
     41,9032	     778,041	-60,9
     41,9054	     753,459	-49,9
     41,9076	     786,047	-60,0
     41,9098	     788,083	-50,6
      41,912	     787,781	-56,3
     41,9142	     803,528	-60,0
     41,9164	     810,614	-63,7
     41,9186	     754,372	-44,8
     41,9208	     782,048	-56,9
      41,923	     785,392	-54,4
     41,9252	     782,554	-54,7
     41,9274	     801,804	-51,0
     41,9296	      785,32	-54,4
     41,9318	     807,762	-58,1
      41,934	      770,29	-50,2
     41,9362	     809,336	-57,9
     41,9384	     785,543	-46,9
     41,9406	     837,568	-61,3
     41,9428	     789,792	-44,8
      41,945	     809,813	-59,8
     41,9472	     814,245	-50,5
     41,9494	     833,151	-58,1
     41,9516	     793,947	-50,2
     41,9538	     839,067	-52,4
      41,956	     816,055	-46,9
     41,9582	     851,401	-59,5
     41,9604	     794,226	-40,6
     41,9626	     826,474	-58,5
     41,9648	      806,08	-47,7
      41,967	     830,058	-60,7
     41,9692	     817,792	-45,3
     41,9714	     829,257	-51,7
     41,9736	     862,973	-56,6
     41,9758	     814,684	-45,5
      41,978	     810,613	-43,5
     41,9802	     834,978	-59,8
     41,9824	     816,865	-48,8
     41,9846	     840,792	-53,1
     41,9868	     852,579	-52,4
      41,989	     813,547	-46,5
     41,9912	     867,251	-57,7
     41,9934	     818,752	-46,0
     41,9956	     881,789	-56,9
     41,9978	     847,802	-46,7
          42	     877,009	-60,2
     42,0022	     860,014	-57,2
     42,0044	     864,692	-49,3
     42,0066	     844,497	-47,8
     42,0088	     875,395	-55,6
      42,011	     835,682	-47,4
     42,0132	     891,294	-55,0
     42,0154	     862,116	-44,9
     42,0176	     913,434	-59,2
     42,0198	     850,099	-45,4
      42,022	     885,166	-57,9
     42,0242	     849,081	-40,9
     42,0264	     906,133	-57,5
     42,0286	     874,331	-42,6
     42,0308	     893,617	-49,4
      42,033	     880,433	-47,9
     42,0352	      915,25	-52,8
     42,0374	     882,519	-50,3
     42,0396	     908,324	-51,3
     42,0418	      852,41	-44,4
      42,044	     930,543	-55,8
     42,0462	     881,377	-44,4
     42,0484	     928,194	-55,2
     42,0506	     883,116	-41,5
     42,0528	     921,372	-61,3
      42,055	       878,6	-45,5
     42,0572	     907,317	-56,6
     42,0594	     900,783	-50,3
     42,0616	     936,631	-49,4
     42,0638	     903,206	-47,5
      42,066	     940,432	-53,4
     42,0682	     886,272	-45,8
     42,0704	     925,967	-49,8
     42,0726	     915,144	-47,1
     42,0748	     973,594	-57,2
      42,077	     916,006	-38,6
     42,0792	      965,51	-55,4
     42,0814	     922,536	-43,6
     42,0836	     944,742	-46,8
     42,0858	     936,352	-55,0
      42,088	     932,013	-42,5
     42,0902	     925,228	-49,3
     42,0924	     966,411	-52,4
     42,0946	     942,579	-44,8
     42,0968	     978,875	-49,7
      42,099	     911,999	-44,8
     42,1012	     974,903	-57,5
     42,1034	     969,652	-57,1
     42,1056	     938,865	-44,6
     42,1078	     949,123	-52,0
       42,11	     952,122	-41,9
     42,1122	     950,958	-51,5
     42,1144	     974,224	-45,2
     42,1166	     964,131	-50,0
     42,1188	     982,581	-41,9
      42,121	     968,312	-51,6
     42,1232	     989,096	-44,3
     42,1254	     975,292	-47,5
     42,1276	     1000,33	-44,6
     42,1298	     984,311	-50,3
      42,132	     980,505	-43,3
     42,1342	     1019,11	-55,4
     42,1364	     976,141	-40,4
     42,1386	     1020,76	-53,2
     42,1408	     980,313	-40,8
      42,143	     1019,48	-54,4
     42,1452	     992,131	-40,3
     42,1474	     1012,63	-46,3
     42,1496	     986,273	-43,5
     42,1518	     1038,43	-49,0
      42,154	      999,82	-45,3
     42,1562	     1039,96	-42,9
     42,1584	     1002,08	-43,7
     42,1606	     1048,23	-46,4
     42,1628	     1011,89	-46,4
      42,165	      1051,2	-50,5
     42,1672	     1006,58	-40,7
     42,1694	     1062,69	-52,4
     42,1716	      1054,4	-54,0
     42,1738	     1020,82	-39,5
      42,176	      1070,3	-53,8
     42,1782	      995,93	-37,1
     42,1804	     1054,01	-50,1
     42,1826	     1017,19	-40,4
     42,1847	     1079,86	-51,0
      42,187	     1026,31	-38,1
     42,1891	      1081,8	-43,3
     42,1913	     1036,23	-42,1
     42,1936	        1076	-53,5
     42,1957	     1031,26	-38,5
     42,1979	     1092,74	-48,7
     42,2001	     1062,85	-37,8
     42,2023	     1113,47	-54,2
     42,2045	     1049,47	-38,8
     42,2067	      1065,7	-39,8
     42,2089	     1096,33	-50,7
     42,2111	     1057,01	-34,8
     42,2133	     1096,15	-52,0
     42,2155	     1081,49	-40,6
     42,2177	     1104,58	-50,2
     42,2199	     1085,15	-33,5
     42,2221	     1121,67	-50,8
     42,2243	     1084,55	-40,4
     42,2265	     1127,71	-49,0
     42,2287	     1086,23	-34,5
     42,2309	     1124,09	-46,9
     42,2331	     1115,59	-43,1
     42,2353	     1152,14	-38,6
     42,2375	     1141,82	-48,4
     42,2397	     1139,31	-37,9
     42,2419	     1145,14	-48,5
     42,2441	     1131,92	-35,9
     42,2463	     1152,67	-48,6
     42,2485	     1147,01	-35,6
     42,2507	     1160,79	-46,4
     42,2529	      1129,8	-38,2
     42,2551	     1166,11	-49,4
     42,2573	     1148,94	-44,7
     42,2595	     1184,46	-46,2
     42,2617	      1166,9	-46,8
     42,2639	     1166,48	-37,7
     42,2661	     1164,81	-42,6
     42,2683	     1150,04	-35,3
     42,2705	     1178,39	-50,3
     42,2727	     1163,84	-34,3
     42,2749	     1187,85	-46,6
     42,2771	     1179,38	-32,5
     42,2793	     1213,28	-44,6
     42,2815	     1202,62	-36,3
     42,2837	     1222,45	-41,6
     42,2859	      1202,6	-43,0
     42,2881	     1223,62	-34,4
     42,2903	     1208,49	-46,6
     42,2925	     1211,97	-35,5
     42,2947	     1242,35	-46,0
     42,2969	     1202,64	-31,7
     42,2991	     1234,04	-45,7
     42,3013	     1208,23	-32,5
     42,3035	     1249,26	-44,3
     42,3057	     1220,34	-33,6
     42,3079	     1273,52	-40,8
     42,3101	        1229	-29,9
     42,3123	     1280,54	-48,4
     42,3145	     1220,96	-37,8
     42,3167	      1290,6	-42,9
     42,3189	      1228,3	-36,8
     42,3211	     1278,04	-36,8
     42,3233	     1291,74	-38,6
     42,3255	     1246,33	-30,7
     42,3277	     1305,44	-44,1
     42,3299	     1245,57	-34,8
     42,3321	     1298,54	-38,3
     42,3343	     1244,99	-34,2
     42,3365	     1304,27	-34,6
     42,3387	     1275,08	-42,9
     42,3409	     1295,95	-34,3
     42,3431	     1286,12	-38,4
     42,3453	     1286,11	-27,2
     42,3475	     1313,25	-40,0
     42,3497	     1315,37	-30,7
     42,3519	     1333,28	-34,8
     42,3541	     1316,36	-36,8
     42,3563	     1338,94	-30,8
     42,3585	      1322,3	-40,5
     42,3607	     1331,95	-34,7
     42,3629	     1333,98	-39,8
     42,3651	     1327,12	-31,1
     42,3673	      1329,4	-35,8
     42,3695	     1324,05	-33,7
     42,3717	     1351,49	-29,9
     42,3739	     1345,87	-38,9
     42,3761	     1363,26	-30,6
     42,3783	     1386,91	-39,5
     42,3805	     1352,85	-25,9
     42,3827	     1406,32	-36,3
     42,3849	     1343,72	-27,3
     42,3871	     1423,85	-37,7
     42,3893	     1361,67	-31,0
     42,3915	     1413,63	-34,9
     42,3937	     1370,37	-29,5
     42,3959	      1420,6	-31,7
     42,3981	     1376,19	-34,5
     42,4003	     1398,13	-30,5
     42,4025	     1424,89	-33,0
     42,4047	     1385,08	-36,7
     42,4069	     1430,12	-34,2
     42,4091	     1408,52	-37,0
     42,4113	     1416,97	-24,1
     42,4135	     1471,32	-35,4
     42,4157	      1447,3	-26,7
     42,4179	     1474,54	-35,3
     42,4201	     1441,51	-24,3
     42,4223	     1495,56	-34,1
     42,4245	     1443,85	-27,7
     42,4267	     1502,68	-36,3
     42,4289	     1456,38	-30,4
     42,4311	     1475,88	-27,6
     42,4333	     1473,66	-31,8
     42,4355	     1455,66	-25,1
     42,4377	     1524,02	-28,8
     42,4399	     1477,45	-31,5
     42,4421	     1506,51	-26,9
     42,4443	     1492,77	-32,0
     42,4465	     1506,29	-18,4
     42,4487	      1521,1	-33,2
     42,4509	        1482	-20,9
     42,4531	     1546,23	-32,9
     42,4553	     1493,57	-26,1
     42,4575	     1545,78	-23,5
     42,4597	        1510	-25,5
     42,4619	     1552,83	-24,6
     42,4641	     1566,97	-26,8
     42,4663	        1528	-25,1
     42,4685	      1567,7	-24,7
     42,4707	      1555,1	-27,4
     42,4729	     1570,79	-17,7
     42,4751	     1578,16	-28,8
     42,4773	     1563,17	-20,3
     42,4795	     1610,43	-32,2
     42,4817	     1573,17	-19,4
     42,4839	     1590,03	-20,7
     42,4861	     1616,63	-30,5
     42,4883	     1560,35	-16,4
     42,4905	     1619,28	-23,6
     42,4927	     1578,65	-23,9
     42,4949	      1637,9	-22,3
     42,4971	     1621,31	-29,0
     42,4993	     1633,01	-17,4
     42,5015	     1646,74	-24,8
     42,5037	     1645,27	-17,7
     42,5059	     1657,16	-25,8
     42,5081	     1625,66	-22,9
     42,5103	     1641,93	-18,6
     42,5125	     1686,82	-29,3
     42,5147	     1648,24	-16,5
     42,5169	     1703,16	-22,0
     42,5191	     1655,58	-15,6
     42,5213	      1712,2	-18,2
     42,5235	     1678,89	-21,6
     42,5257	     1710,53	-14,8
     42,5279	     1705,27	-25,4
     42,5301	     1677,06	-10,8
     42,5323	     1723,98	-19,8
     42,5345	     1672,14	-15,4
     42,5367	     1735,75	-19,7
     42,5389	     1680,37	-20,9
     42,5411	     1696,52	-15,6
     42,5433	     1762,12	-16,0
     42,5455	     1701,69	-13,6
     42,5477	     1749,19	-11,8
     42,5499	     1731,01	-20,8
     42,5521	     1735,31	-11,9
     42,5543	     1753,91	-21,5
     42,5564	     1711,58	-13,0
     42,5587	     1776,56	-17,5
     42,5609	     1728,21	-13,7
      42,563	     1736,46	-6,0
     42,5653	     1793,61	-15,3
     42,5674	     1745,33	-12,9
     42,5696	      1811,1	-11,8
     42,5718	     1789,47	-16,7
      42,574	     1783,92	-10,0
