X-Data [Hz]	Piezo (M - Filtered) [mV]	Phase [Deg]	Piezo (M - Filtered) [mV]	Phase [Deg]	
	002: [07-10-24 07:54]		003: [07-10-24 07:57]	
        41,5	     492,652	-99,1	     547,003	-99,4
      41,502	     497,057	-100,6	     547,782	-100,4
     41,5039	     505,837	-98,1	     547,183	-99,0
     41,5059	     520,651	-98,3	     549,562	-100,5
     41,5078	     532,273	-99,3	     547,152	-98,8
     41,5098	     537,586	-98,9	     548,986	-99,9
     41,5117	     541,784	-101,0	     550,576	-99,2
     41,5137	     541,416	-99,7	     551,476	-98,9
     41,5156	     545,486	-100,2	     555,909	-99,9
     41,5176	     547,905	-100,0	      554,67	-98,5
     41,5196	     548,978	-99,9	     555,367	-99,6
     41,5215	     549,371	-100,6	      554,82	-98,6
     41,5235	     547,595	-99,0	      555,64	-98,7
     41,5254	     550,841	-99,5	     561,453	-99,8
     41,5274	     551,388	-98,8	     560,826	-98,8
     41,5293	     554,074	-99,2	     564,538	-100,0
     41,5313	     554,956	-99,2	     563,146	-98,8
     41,5332	     555,562	-99,0	     566,447	-99,9
     41,5352	      557,54	-99,5	     567,509	-99,8
     41,5371	     556,393	-99,0	     565,555	-99,9
     41,5391	     559,537	-100,4	     569,746	-100,6
     41,5411	     560,455	-99,2	     566,261	-98,4
      41,543	     564,755	-100,1	     568,865	-99,6
      41,545	     563,466	-99,7	     570,917	-98,6
     41,5469	     561,938	-98,5	     572,691	-99,3
     41,5489	     563,832	-100,0	     574,153	-98,7
     41,5508	     564,399	-98,8	     573,701	-98,2
     41,5528	     570,476	-99,9	     577,193	-99,1
     41,5547	      571,22	-100,1	     577,244	-98,2
     41,5567	     571,088	-98,5	     581,423	-100,0
     41,5587	      571,22	-99,1	     580,444	-99,2
     41,5606	      571,14	-98,3	     580,385	-99,4
     41,5626	     574,525	-99,8	     584,412	-99,7
     41,5645	     573,194	-98,7	     584,275	-98,8
     41,5665	     575,446	-98,1	     585,776	-99,8
     41,5684	     576,484	-99,4	     586,054	-99,3
     41,5704	     576,862	-98,1	     587,269	-99,3
     41,5723	     582,047	-99,8	     587,633	-97,7
     41,5743	     581,055	-99,0	     588,913	-98,0
     41,5762	     583,349	-99,1	     592,687	-98,6
     41,5782	     584,387	-99,5	      592,65	-97,8
     41,5802	     583,814	-98,7	     597,095	-99,1
     41,5821	     586,539	-99,4	     596,601	-98,3
     41,5841	     588,459	-97,8	     597,641	-99,0
      41,586	     590,964	-99,1	     599,681	-98,9
      41,588	     588,556	-98,0	     599,187	-98,8
     41,5899	     589,486	-98,0	     603,847	-99,3
     41,5919	     591,193	-98,8	     603,729	-98,8
     41,5938	     591,365	-97,8	     604,566	-98,7
     41,5958	     595,553	-99,3	     606,522	-98,8
     41,5978	     593,754	-98,4	     604,933	-98,5
     41,5997	     597,204	-98,7	     610,085	-99,3
     41,6017	     598,086	-98,9	     609,171	-97,4
     41,6036	      599,82	-98,0	      612,38	-98,6
     41,6056	     602,956	-99,3	     610,663	-97,8
     41,6075	     600,541	-97,3	     611,468	-97,1
     41,6095	     603,171	-98,0	     615,447	-98,7
     41,6114	     604,421	-97,8	      616,38	-97,8
     41,6134	     606,665	-97,7	     619,837	-98,4
     41,6153	     608,589	-98,6	     617,649	-97,7
     41,6173	     608,945	-97,3	     618,838	-98,3
     41,6193	     611,213	-97,8	      623,14	-98,9
     41,6212	     610,404	-98,3	     622,392	-97,6
     41,6232	      610,85	-97,3	     625,719	-98,5
     41,6251	     615,043	-98,8	     626,459	-96,6
     41,6271	     615,385	-98,1	     626,531	-97,1
      41,629	     620,674	-98,6	     629,168	-97,5
      41,631	     621,105	-98,6	     630,216	-97,2
     41,6329	     621,162	-97,7	     634,269	-98,1
     41,6349	     623,011	-98,5	     634,691	-96,6
     41,6369	      623,08	-97,4	     634,471	-97,0
     41,6388	     625,553	-97,6	     637,999	-97,4
     41,6408	     626,293	-97,1	     639,078	-97,9
     41,6427	     627,011	-96,9	     642,949	-98,7
     41,6447	     630,322	-98,1	     641,286	-96,4
     41,6466	     628,998	-97,2	     643,955	-97,3
     41,6486	     634,154	-98,4	      644,88	-97,5
     41,6505	     635,691	-98,4	     646,652	-97,4
     41,6525	     635,898	-97,1	      650,35	-97,7
     41,6544	     637,316	-97,8	     647,938	-96,6
     41,6564	     636,956	-96,8	     650,362	-97,1
     41,6584	      640,98	-97,8	     652,683	-96,3
     41,6603	     642,703	-97,8	     652,878	-95,6
     41,6623	      642,81	-96,7	     658,814	-97,7
     41,6642	     647,133	-97,9	      658,06	-96,6
     41,6662	     644,145	-96,3	     662,251	-97,6
     41,6681	     646,098	-96,2	     663,926	-97,7
     41,6701	     648,004	-97,4	     664,803	-96,3
      41,672	     650,305	-96,2	     667,776	-97,0
      41,674	     652,957	-97,9	     666,606	-96,2
      41,676	     652,525	-96,7	     668,875	-96,8
     41,6779	      656,48	-97,1	      668,82	-95,9
     41,6799	     658,552	-97,2	     668,185	-95,7
     41,6818	     657,997	-96,4	      675,51	-96,6
     41,6838	     661,128	-97,3	     676,193	-95,7
     41,6857	     661,384	-95,8	     679,492	-97,1
     41,6877	     664,876	-96,1	     681,243	-97,0
     41,6896	     666,291	-96,8	     677,727	-96,3
     41,6916	      664,93	-96,3	     682,203	-96,8
     41,6936	     670,319	-97,2	     684,065	-95,5
     41,6955	     669,421	-96,8	     687,286	-96,0
     41,6975	     674,466	-96,5	     688,409	-95,7
     41,6994	     676,827	-96,9	      687,68	-95,4
     41,7014	     676,466	-95,6	     692,748	-96,5
     41,7033	     678,345	-96,1	     692,463	-95,4
     41,7053	     678,962	-96,1	     694,935	-96,2
     41,7072	     680,884	-95,4	     696,737	-96,2
     41,7092	     685,433	-96,9	     697,902	-95,9
     41,7111	     684,745	-95,9	     700,961	-96,4
     41,7131	      686,07	-96,8	     701,304	-94,8
     41,7151	     686,577	-96,2	     704,413	-95,7
      41,717	      686,73	-95,5	      706,71	-94,6
      41,719	     692,138	-97,1	     707,085	-94,6
     41,7209	     693,468	-96,3	     709,867	-95,5
     41,7229	     697,163	-95,6	     711,485	-95,2
     41,7248	     698,547	-96,3	     713,481	-94,7
     41,7268	      698,06	-94,8	     717,913	-95,4
     41,7287	      702,44	-95,3	     718,082	-94,5
     41,7307	     701,358	-95,6	     723,421	-95,7
     41,7327	     703,493	-95,0	     723,043	-94,5
     41,7346	     707,449	-95,9	     723,881	-94,8
     41,7366	     707,859	-94,9	     727,158	-94,8
     41,7385	     710,528	-94,5	     726,964	-94,0
     41,7405	     713,691	-96,0	     728,948	-94,5
     41,7424	     713,906	-94,8	     732,135	-94,3
     41,7444	     717,556	-95,7	     732,828	-94,0
     41,7463	     716,985	-94,8	      740,22	-95,5
     41,7483	     719,101	-94,3	     740,284	-94,7
     41,7502	     723,375	-95,3	     741,453	-94,9
     41,7522	     722,943	-94,4	     744,238	-95,2
     41,7542	     727,862	-95,5	     745,343	-93,8
     41,7561	     728,657	-95,6	     748,103	-94,5
     41,7581	     730,581	-94,9	     750,086	-93,8
       41,76	     733,726	-95,2	     750,254	-93,9
      41,762	     734,701	-95,3	      754,15	-94,2
     41,7639	     735,739	-94,5	     755,407	-93,5
     41,7659	     739,281	-95,1	      762,33	-94,9
     41,7678	     737,181	-93,9	     763,241	-93,4
     41,7698	     742,426	-94,2	     764,039	-94,2
     41,7718	     744,752	-94,4	     766,729	-94,7
     41,7737	     746,128	-93,7	     765,515	-93,2
     41,7757	     749,778	-95,0	     768,573	-94,1
     41,7776	     750,994	-94,0	     774,385	-93,4
     41,7796	     754,952	-94,6	      773,77	-92,6
     41,7815	     755,545	-94,7	     780,049	-94,5
     41,7835	     755,873	-93,8	     781,923	-93,6
     41,7854	     759,004	-94,0	     784,185	-94,0
     41,7874	     761,603	-93,5	     787,526	-94,2
     41,7893	     764,064	-93,2	     785,517	-92,9
     41,7913	     767,639	-94,2	     788,089	-93,3
     41,7933	     767,299	-93,5	     792,236	-92,6
     41,7952	     773,924	-94,4	     793,623	-92,4
     41,7972	     774,785	-94,4	     798,762	-93,5
     41,7991	     775,207	-93,7	     800,208	-93,1
     41,8011	      779,62	-93,6	     804,117	-93,4
      41,803	     781,569	-94,0	     806,502	-93,1
      41,805	     782,942	-92,5	     807,174	-92,2
     41,8069	     786,534	-93,0	     811,342	-93,0
     41,8089	     787,461	-93,4	     812,936	-92,2
     41,8109	     793,154	-93,7	     814,166	-92,2
     41,8128	     795,435	-94,1	     817,583	-93,2
     41,8148	     794,537	-93,2	      818,28	-91,6
     41,8167	     799,345	-93,0	     821,471	-91,6
     41,8187	      801,23	-93,2	     828,126	-92,3
     41,8206	     802,948	-92,3	     828,902	-91,5
     41,8226	     804,936	-93,3	     833,377	-92,9
     41,8245	     805,882	-92,0	     837,019	-92,6
     41,8265	     810,514	-92,0	     838,572	-91,8
     41,8284	     815,216	-93,1	     843,567	-92,2
     41,8304	     814,967	-92,3	     842,365	-90,8
     41,8324	     819,947	-92,3	     844,064	-91,2
     41,8343	     822,164	-92,7	     849,811	-91,5
     41,8363	      822,95	-91,8	     851,766	-90,9
     41,8382	     826,956	-92,3	     857,509	-92,4
     41,8402	     828,017	-92,3	     859,498	-91,7
     41,8421	     828,416	-91,3	     861,488	-91,3
     41,8441	     833,948	-92,3	     866,115	-91,7
      41,846	     835,134	-91,7	     868,034	-90,6
      41,848	     841,705	-91,9	      871,16	-91,3
       41,85	     845,147	-92,2	     876,055	-91,7
     41,8519	     847,041	-91,0	     876,387	-90,3
     41,8539	     849,584	-91,1	     879,256	-90,9
     41,8558	     853,477	-91,5	     881,843	-90,1
     41,8578	     853,748	-90,8	     883,566	-89,8
     41,8597	     858,809	-91,6	     891,657	-90,9
     41,8617	     859,814	-91,2	     894,263	-90,3
     41,8636	     865,275	-91,0	      897,01	-90,4
     41,8656	     869,605	-91,9	      901,49	-90,9
     41,8675	     868,378	-90,4	     904,815	-90,3
     41,8695	     871,867	-90,3	     907,074	-90,1
     41,8715	       875,5	-91,1	     913,049	-90,6
     41,8734	     874,904	-90,5	     913,841	-88,7
     41,8754	     881,553	-90,4	     921,429	-90,4
     41,8773	     885,056	-90,8	     923,278	-89,6
     41,8793	     887,579	-89,8	     925,353	-89,7
     41,8812	     891,529	-90,1	     930,892	-90,6
     41,8832	     894,666	-90,3	     930,846	-88,3
     41,8851	     895,333	-90,1	     933,347	-89,0
     41,8871	     900,933	-90,4	      940,13	-89,4
     41,8891	     904,864	-90,1	     941,462	-88,3
      41,891	     906,169	-89,0	     946,046	-88,4
      41,893	      911,38	-89,9	     951,796	-88,7
     41,8949	     912,299	-89,2	     954,037	-88,2
     41,8969	     917,282	-88,7	     960,894	-89,1
     41,8988	     923,371	-89,9	     964,024	-88,5
     41,9008	     924,533	-89,3	     967,411	-88,3
     41,9027	     930,288	-89,0	     973,452	-88,6
     41,9047	     933,969	-89,7	     976,752	-87,5
     41,9066	     933,554	-88,3	     979,702	-87,8
     41,9086	     937,871	-88,3	     984,749	-88,2
     41,9106	      942,25	-89,1	     985,545	-86,9
     41,9125	     946,491	-88,2	     994,325	-88,1
     41,9145	     951,185	-89,2	     997,565	-87,5
     41,9164	     950,753	-87,7	     999,682	-86,8
     41,9184	     955,145	-87,6	     1006,91	-87,3
     41,9203	     961,161	-88,7	     1011,93	-87,5
     41,9223	     963,145	-87,6	     1013,61	-86,7
     41,9242	     967,494	-87,4	     1018,91	-87,3
     41,9262	      975,29	-88,7	     1022,85	-85,6
     41,9282	     977,106	-87,9	     1024,97	-85,8
     41,9301	     982,795	-87,4	     1034,95	-86,5
     41,9321	     986,472	-88,1	     1038,19	-85,6
      41,934	     987,579	-86,5	     1045,78	-86,4
      41,936	     995,502	-87,8	     1050,48	-86,6
     41,9379	     996,081	-87,2	     1056,39	-85,4
     41,9399	     1001,24	-86,6	     1060,46	-85,7
     41,9418	      1006,4	-87,1	     1068,07	-86,4
     41,9438	     1010,22	-86,5	     1069,29	-84,2
     41,9457	     1013,46	-85,8	     1073,63	-85,2
     41,9477	     1019,87	-86,5	     1083,69	-84,9
     41,9497	     1021,68	-86,1	     1086,83	-84,1
     41,9516	     1025,85	-85,5	     1096,36	-85,5
     41,9536	     1034,61	-86,4	     1101,72	-85,0
     41,9555	     1037,24	-86,2	     1103,58	-84,1
     41,9575	     1042,62	-85,5	     1110,15	-84,7
     41,9594	     1047,69	-85,8	      1116,4	-84,4
     41,9614	     1050,49	-85,7	     1120,88	-83,5
     41,9633	     1052,47	-85,0	     1128,03	-83,7
     41,9653	      1061,2	-85,7	     1137,15	-82,9
     41,9673	     1062,65	-84,4	     1140,93	-82,6
     41,9692	     1068,73	-84,6	     1151,75	-83,6
     41,9712	     1075,78	-85,0	     1157,08	-83,0
     41,9731	     1078,67	-84,1	     1161,58	-82,8
     41,9751	     1083,07	-84,0	     1173,51	-82,4
      41,977	     1090,37	-84,7	     1178,53	-81,5
      41,979	     1093,63	-83,9	     1187,71	-82,3
     41,9809	     1102,84	-84,3	     1196,09	-82,0
     41,9829	     1106,74	-84,2	     1201,21	-81,3
     41,9848	     1110,02	-82,7	      1209,1	-81,6
     41,9868	     1116,38	-83,6	     1217,65	-81,7
     41,9888	     1121,69	-83,6	     1224,29	-80,1
     41,9907	     1126,08	-82,9	     1231,92	-80,5
     41,9927	     1132,58	-82,5	     1244,16	-80,2
     41,9946	     1139,03	-83,3	     1248,99	-79,4
     41,9966	     1143,19	-82,9	     1258,29	-80,2
     41,9985	     1152,01	-82,4	     1269,05	-79,6
     42,0005	     1156,29	-81,5	     1277,83	-78,4
     42,0024	     1162,53	-81,1	     1286,62	-78,8
     42,0044	     1168,48	-81,2	     1300,15	-78,6
     42,0064	     1174,83	-81,7	     1308,02	-78,0
     42,0083	     1179,08	-81,4	     1320,69	-78,3
     42,0103	     1190,57	-81,7	     1330,61	-77,9
     42,0122	     1195,43	-81,7	     1341,12	-76,8
     42,0142	     1201,61	-80,5	     1353,38	-76,9
     42,0161	     1209,02	-80,5	     1368,88	-75,9
     42,0181	     1213,18	-79,8	     1379,23	-75,3
       42,02	      1218,8	-79,4	     1396,42	-76,5
      42,022	      1228,9	-80,4	     1408,74	-75,8
     42,0239	     1234,49	-80,0	     1419,69	-74,9
     42,0259	     1243,36	-79,5	     1434,42	-74,9
     42,0279	     1249,56	-79,6	     1451,48	-73,0
     42,0298	     1254,53	-78,6	     1462,83	-72,8
     42,0318	     1262,17	-78,0	     1485,49	-73,4
     42,0337	     1270,72	-78,5	     1498,46	-72,1
     42,0357	     1275,42	-78,1	     1515,52	-72,3
     42,0376	     1282,62	-77,4	     1530,71	-72,2
     42,0396	     1294,87	-78,1	     1547,65	-70,4
     42,0415	     1300,88	-77,9	     1562,72	-70,1
     42,0435	     1310,61	-77,1	     1585,15	-70,2
     42,0455	     1318,95	-77,5	     1599,47	-68,9
     42,0474	     1325,07	-76,3	     1617,08	-68,3
     42,0494	     1333,97	-75,6	     1634,18	-68,1
     42,0513	     1344,71	-76,4	     1654,38	-66,2
     42,0533	     1351,26	-75,6	     1666,79	-66,2
     42,0552	     1360,83	-75,4	     1691,91	-66,2
     42,0572	     1367,75	-75,3	     1705,59	-65,4
     42,0591	     1376,06	-74,4	     1722,64	-64,6
     42,0611	     1387,86	-74,5	     1739,73	-64,3
      42,063	     1397,48	-74,5	     1760,44	-62,5
      42,065	     1405,64	-73,6	     1772,73	-62,0
      42,067	     1414,05	-73,2	     1797,05	-61,8
     42,0689	     1429,47	-73,8	     1811,71	-60,7
     42,0709	     1435,96	-73,3	     1828,05	-59,8
     42,0728	     1444,53	-72,0	     1842,76	-59,7
     42,0748	     1455,69	-71,9	     1861,97	-58,6
     42,0767	     1464,18	-71,5	     1874,74	-57,8
     42,0787	     1473,05	-70,9	     1895,77	-57,6
     42,0806	     1488,67	-71,2	     1908,32	-56,7
     42,0826	     1497,67	-71,2	     1922,02	-55,5
     42,0846	     1511,06	-69,9	     1935,05	-55,3
     42,0865	     1521,66	-70,1	     1951,32	-53,7
     42,0885	     1533,72	-68,5	     1960,21	-53,1
     42,0904	     1543,16	-67,9	     1978,65	-53,3
     42,0924	     1558,68	-68,2	     1990,54	-52,4
     42,0943	     1568,33	-67,9	     1999,82	-51,3
     42,0963	     1581,49	-66,8	     2011,26	-51,4
     42,0982	     1594,91	-66,8	     2026,07	-50,2
     42,1002	     1605,59	-66,6	     2031,17	-49,5
     42,1021	      1619,5	-65,3	     2046,64	-48,9
     42,1041	     1633,49	-65,0	     2056,19	-48,2
     42,1061	     1647,53	-64,6	      2062,9	-47,5
      42,108	     1657,43	-63,8	     2071,61	-47,0
       42,11	      1675,1	-63,2	      2084,6	-46,1
     42,1119	     1686,53	-63,2	     2090,27	-45,5
     42,1139	     1700,64	-61,4	     2101,41	-45,6
     42,1158	     1714,37	-61,3	     2109,68	-45,1
     42,1178	      1730,4	-60,9	     2114,43	-43,7
     42,1197	     1743,81	-60,1	     2119,63	-43,6
     42,1217	     1755,58	-59,1	     2131,25	-42,8
     42,1237	     1775,96	-59,6	     2136,27	-41,8
     42,1256	     1786,11	-58,5	     2141,86	-41,6
     42,1276	     1806,33	-57,3	     2149,49	-41,2
     42,1295	      1819,6	-57,0	     2156,25	-40,3
     42,1315	     1831,11	-55,5	      2161,5	-39,7
     42,1334	     1852,03	-54,8	     2173,66	-39,7
     42,1354	     1864,65	-54,6	     2176,55	-38,5
     42,1373	     1874,83	-54,1	     2178,39	-38,1
     42,1393	     1896,21	-52,6	     2184,92	-38,6
     42,1413	     1910,53	-52,3	     2189,64	-36,8
     42,1432	     1923,41	-51,7	      2192,7	-36,9
     42,1452	     1937,14	-50,3	     2199,65	-36,3
     42,1471	      1960,6	-50,3	     2203,42	-35,5
     42,1491	     1973,27	-49,3	     2204,46	-34,9
      42,151	     1992,87	-47,2	     2209,88	-35,1
      42,153	     2008,27	-47,0	     2215,27	-34,3
     42,1549	     2022,81	-45,8	      2216,2	-33,9
     42,1569	     2036,75	-44,5	     2218,66	-33,5
     42,1588	     2051,79	-43,9	     2224,93	-33,6
     42,1608	     2068,18	-43,5	     2226,99	-32,6
     42,1628	     2079,13	-42,4	     2226,83	-32,4
     42,1647	     2099,97	-41,8	      2231,3	-32,4
     42,1667	     2110,89	-40,7	     2234,24	-30,6
     42,1686	     2121,92	-40,0	      2235,3	-30,4
     42,1706	     2138,75	-39,1	     2240,58	-30,3
     42,1725	     2147,76	-38,6	     2242,24	-29,8
     42,1745	     2156,04	-36,8	     2241,39	-29,5
     42,1764	     2166,13	-36,0	     2241,89	-29,2
     42,1784	     2176,84	-36,0	     2246,42	-28,6
     42,1804	     2182,49	-34,9	     2246,98	-28,2
     42,1823	     2195,24	-34,0	     2250,76	-28,2
     42,1843	     2202,79	-33,8	     2252,12	-28,1
     42,1862	     2207,87	-32,8	     2251,84	-26,6
     42,1882	     2215,96	-32,2	     2253,13	-26,9
     42,1901	     2222,71	-31,6	     2256,64	-25,8
     42,1921	     2225,96	-31,0	     2255,99	-25,3
      42,194	     2230,66	-30,9	     2255,52	-25,9
      42,196	     2240,89	-29,4	     2258,68	-25,4
     42,1979	     2242,72	-29,5	     2257,44	-24,6
     42,1999	     2244,17	-28,1	     2255,93	-24,7
     42,2019	     2247,22	-27,6	     2260,92	-24,3
     42,2038	     2252,45	-27,5	      2261,7	-23,9
     42,2058	     2253,45	-26,7	      2257,9	-23,7
     42,2077	     2261,08	-26,0	     2258,41	-23,7
     42,2097	     2263,79	-26,0	     2257,99	-22,1
     42,2116	     2262,58	-25,3	      2258,5	-22,2
     42,2136	     2265,13	-24,7	     2259,33	-21,8
     42,2155	      2267,6	-24,6	     2261,14	-21,5
     42,2175	      2265,5	-24,6	     2260,05	-20,7
     42,2195	     2269,02	-22,9	     2255,02	-21,5
     42,2214	      2270,4	-22,8	     2256,83	-21,3
     42,2234	     2270,67	-22,8	     2255,38	-20,0
     42,2253	     2270,36	-21,5	     2253,77	-19,8
     42,2273	     2271,94	-21,3	     2258,09	-20,4
     42,2292	     2270,72	-22,0	     2254,06	-18,9
     42,2312	     2269,68	-21,0	     2252,08	-19,0
     42,2331	     2273,69	-21,0	     2251,04	-19,1
     42,2351	     2272,22	-21,0	     2256,23	-18,2
      42,237	     2269,99	-20,6	     2256,05	-18,0
      42,239	     2271,26	-19,5	     2252,22	-18,2
      42,241	     2272,52	-19,3	      2254,2	-17,9
     42,2429	      2267,4	-19,1	     2248,79	-17,0
