X-Data [Hz]	Piezo (M - Filtered) [mV]	Phase [Deg]	
	002: [07-02-24 18:03]	
        33,5	     3777,67	-21,9
      33,502	     4022,64	-22,7
     33,5039	     4151,09	-23,7
     33,5059	     4205,69	-23,5
     33,5078	     4245,21	-24,0
     33,5098	     4245,24	-24,5
     33,5117	     4223,15	-24,1
     33,5137	     4253,18	-23,3
     33,5156	     4284,92	-23,0
     33,5176	     4307,01	-23,8
     33,5196	     4306,41	-24,1
     33,5215	     4278,54	-24,7
     33,5235	     4275,16	-23,6
     33,5254	     4296,98	-23,5
     33,5274	     4318,65	-23,4
     33,5293	     4319,75	-23,3
     33,5313	     4313,27	-22,6
     33,5332	     4343,36	-23,2
     33,5352	     4345,98	-23,1
     33,5371	     4366,16	-24,0
     33,5391	     4345,64	-24,4
     33,5411	     4348,17	-23,0
      33,543	     4370,54	-22,9
      33,545	     4394,57	-23,0
     33,5469	     4399,92	-23,3
     33,5489	      4385,4	-23,4
     33,5508	      4404,7	-23,9
     33,5528	     4401,24	-24,3
     33,5547	     4405,65	-23,5
     33,5567	     4428,53	-23,7
     33,5587	     4409,97	-23,1
     33,5606	     4447,26	-23,1
     33,5626	     4476,96	-23,8
     33,5645	     4471,21	-23,4
     33,5665	     4466,17	-23,8
     33,5684	     4468,41	-22,7
     33,5704	     4457,61	-22,5
     33,5723	     4462,37	-23,5
     33,5743	     4487,52	-23,6
     33,5762	     4498,64	-22,7
     33,5782	     4501,22	-22,4
     33,5802	        4515	-22,9
     33,5821	     4514,23	-22,4
     33,5841	     4531,73	-21,6
      33,586	      4541,5	-21,4
      33,588	     4554,97	-21,6
     33,5899	     4575,41	-21,8
     33,5919	     4582,81	-22,5
     33,5938	     4571,97	-21,7
     33,5958	     4599,65	-21,2
     33,5978	     4596,64	-21,2
     33,5997	     4601,04	-21,8
     33,6017	     4623,41	-20,9
     33,6036	     4623,31	-21,5
     33,6056	     4628,93	-21,9
     33,6075	     4629,82	-21,1
     33,6095	     4652,83	-20,6
     33,6114	      4652,8	-21,4
     33,6134	     4632,31	-21,9
     33,6153	     4651,45	-22,0
     33,6173	     4678,85	-21,8
     33,6193	     4679,44	-21,9
     33,6212	     4665,21	-22,2
     33,6232	     4667,93	-21,0
     33,6251	     4708,46	-20,7
     33,6271	     4735,27	-21,1
      33,629	      4722,5	-21,1
      33,631	     4705,72	-21,3
     33,6329	     4715,16	-19,7
     33,6349	     4727,86	-19,8
     33,6369	     4746,03	-20,4
     33,6388	     4759,95	-20,4
     33,6408	      4785,5	-19,9
     33,6427	     4777,01	-20,5
     33,6447	     4792,31	-20,0
     33,6466	     4787,68	-20,0
     33,6486	     4807,39	-19,9
     33,6505	     4827,96	-20,0
     33,6525	     4805,13	-20,0
     33,6544	     4828,72	-19,7
     33,6564	     4836,39	-19,3
     33,6584	     4857,09	-19,7
     33,6603	     4872,57	-19,8
     33,6623	     4877,16	-19,4
     33,6642	     4874,73	-19,2
     33,6662	     4881,97	-19,2
     33,6681	     4927,64	-19,5
     33,6701	     4915,01	-19,6
      33,672	     4889,98	-20,2
      33,674	     4888,48	-19,9
      33,676	     4911,98	-20,0
     33,6779	     4922,24	-18,8
     33,6799	     4934,79	-19,0
     33,6818	     4948,31	-18,7
     33,6838	     4959,34	-18,9
     33,6857	     4968,07	-18,5
     33,6877	     4976,03	-18,6
     33,6896	     4973,88	-18,8
     33,6916	     4998,04	-17,8
     33,6936	     5021,77	-18,3
     33,6955	     5046,49	-18,8
     33,6975	     5034,21	-19,1
     33,6994	     5034,74	-18,9
     33,7014	     5033,25	-18,7
     33,7033	      5047,7	-18,1
     33,7053	     5079,72	-18,5
     33,7072	     5058,44	-19,2
     33,7092	     5052,48	-19,0
     33,7111	     5078,98	-17,8
     33,7131	     5106,98	-17,8
     33,7151	      5126,7	-17,4
      33,717	     5119,91	-18,3
      33,719	     5140,08	-17,6
     33,7209	     5141,46	-17,9
     33,7229	     5126,78	-17,8
     33,7248	     5135,99	-16,6
     33,7268	     5164,75	-17,5
     33,7287	     5167,78	-17,1
     33,7307	     5179,46	-17,0
     33,7327	     5198,98	-17,1
     33,7346	     5213,99	-16,7
     33,7366	        5183	-17,1
     33,7385	     5209,24	-17,7
     33,7405	     5233,87	-17,7
     33,7424	     5239,69	-17,4
     33,7444	     5243,29	-17,1
     33,7463	     5240,35	-16,8
     33,7483	     5278,68	-17,1
     33,7502	     5267,02	-17,4
     33,7522	     5272,22	-16,9
     33,7542	     5296,33	-16,2
     33,7561	     5313,52	-16,4
     33,7581	     5315,46	-15,7
       33,76	     5342,03	-16,0
      33,762	     5338,31	-15,8
     33,7639	     5352,02	-15,3
     33,7659	     5360,34	-15,6
     33,7678	     5369,41	-16,1
     33,7698	      5368,4	-15,7
     33,7718	     5396,42	-16,4
     33,7737	     5380,98	-16,1
     33,7757	     5366,55	-15,3
     33,7776	     5416,11	-15,7
     33,7796	     5448,96	-15,2
     33,7815	     5472,98	-15,7
     33,7835	     5472,28	-14,9
     33,7854	     5462,27	-15,1
     33,7874	     5478,02	-14,6
     33,7893	     5472,33	-14,5
     33,7913	     5477,05	-14,6
     33,7933	      5511,9	-13,5
     33,7952	     5547,79	-13,2
     33,7972	     5560,01	-13,8
     33,7991	     5532,24	-14,7
     33,8011	     5535,57	-14,5
      33,803	     5557,24	-13,9
      33,805	     5553,53	-13,9
     33,8069	     5587,65	-13,8
     33,8089	     5579,05	-14,0
     33,8109	     5582,23	-14,0
     33,8128	     5606,42	-13,4
     33,8148	     5605,95	-13,7
     33,8167	     5615,31	-13,4
     33,8187	     5645,44	-13,2
     33,8206	     5674,26	-13,8
     33,8226	     5660,32	-13,8
     33,8245	     5644,03	-13,3
     33,8265	     5679,32	-13,5
     33,8284	     5692,92	-13,5
     33,8304	     5720,05	-12,8
     33,8324	     5721,58	-13,2
     33,8343	     5720,56	-12,0
     33,8363	     5723,26	-12,0
     33,8382	     5736,11	-12,6
     33,8402	      5746,9	-11,9
     33,8421	     5758,29	-11,6
     33,8441	     5753,47	-12,3
      33,846	     5769,08	-12,0
      33,848	      5791,8	-12,6
       33,85	     5803,85	-12,2
     33,8519	     5795,99	-12,0
     33,8539	     5804,27	-11,5
     33,8558	     5817,64	-11,6
     33,8578	     5856,07	-11,2
     33,8597	     5852,22	-11,2
     33,8617	     5863,14	-10,8
     33,8636	     5882,54	-11,0
     33,8656	     5886,62	-11,3
     33,8675	     5910,35	-11,5
     33,8695	     5926,35	-10,8
     33,8715	     5905,06	-10,4
     33,8734	     5936,58	-11,1
     33,8754	     5967,83	-11,3
     33,8773	     5965,17	-10,3
     33,8793	        5958	-10,3
     33,8812	     5980,75	-10,5
     33,8832	     5962,74	-10,0
     33,8851	     5952,93	-10,5
     33,8871	     5973,61	-9,9
     33,8891	     6004,85	-9,9
      33,891	     6034,89	-9,8
      33,893	     6053,29	-9,6
     33,8949	      6038,7	-9,3
     33,8969	     6061,58	-8,8
     33,8988	     6068,71	-8,9
     33,9008	     6084,07	-9,1
     33,9027	     6102,67	-9,3
     33,9047	     6105,26	-9,4
     33,9066	     6115,04	-9,0
     33,9086	     6130,26	-8,8
     33,9106	     6139,69	-8,7
     33,9125	     6148,86	-8,3
     33,9145	     6152,52	-9,2
     33,9164	        6154	-8,6
     33,9184	     6155,85	-8,5
     33,9203	     6190,18	-8,5
     33,9223	     6211,39	-7,9
     33,9242	     6221,76	-7,6
     33,9262	     6220,13	-7,1
     33,9282	      6239,9	-7,1
     33,9301	     6255,65	-7,5
     33,9321	     6260,21	-7,0
      33,934	     6264,16	-7,4
      33,936	     6281,76	-6,9
     33,9379	      6285,6	-7,7
     33,9399	      6315,1	-7,8
     33,9418	     6307,96	-7,2
     33,9438	     6296,14	-7,3
     33,9457	     6325,32	-6,6
     33,9477	     6342,04	-6,1
     33,9497	     6375,96	-5,8
     33,9516	     6359,03	-6,1
     33,9536	     6364,62	-6,3
     33,9555	     6385,35	-6,0
     33,9575	     6401,71	-5,9
     33,9594	     6429,13	-6,5
     33,9614	     6393,53	-6,3
     33,9633	      6422,5	-5,5
     33,9653	     6438,13	-5,3
     33,9673	     6471,41	-5,3
     33,9692	     6471,73	-5,6
     33,9712	     6473,18	-5,3
     33,9731	     6476,35	-5,5
     33,9751	      6482,3	-5,2
      33,977	     6518,83	-4,9
      33,979	     6518,83	-5,2
     33,9809	     6528,75	-3,1
     33,9829	     6538,11	-3,5
     33,9848	     6543,69	-3,5
     33,9868	     6559,92	-3,3
     33,9888	     6593,46	-3,5
     33,9907	     6576,87	-3,3
     33,9927	     6570,95	-4,1
     33,9946	     6580,82	-3,6
     33,9966	     6586,43	-3,5
     33,9985	        6626	-2,8
     34,0005	     6645,11	-3,0
     34,0024	     6643,65	-3,2
     34,0044	      6644,5	-2,6
     34,0064	     6657,41	-2,3
     34,0083	     6675,13	-2,6
     34,0103	     6693,43	-3,1
     34,0122	     6696,36	-3,3
     34,0142	     6709,68	-2,7
     34,0161	     6694,25	-2,9
     34,0181	      6727,6	-1,7
       34,02	     6749,89	-1,7
      34,022	      6742,3	-1,4
     34,0239	     6758,46	-1,5
     34,0259	     6761,06	-1,7
     34,0279	     6756,63	-1,2
     34,0298	     6788,83	-1,3
     34,0318	     6813,31	-1,6
     34,0337	     6836,67	-1,3
     34,0357	      6822,3	-0,9
     34,0376	     6841,54	-0,5
     34,0396	     6856,71	-0,4
     34,0415	     6863,92	-0,1
     34,0435	     6876,37	-0,2
     34,0455	     6881,23	-0,0
     34,0474	     6898,61	-0,5
     34,0494	      6907,7	-1,1
     34,0513	     6924,06	-0,0
     34,0533	     6922,33	 1,0
     34,0552	     6946,03	 0,5
     34,0572	     6951,94	 0,7
     34,0591	     6940,58	 0,4
     34,0611	     6970,16	 0,3
      34,063	     6963,02	 0,5
      34,065	     6991,89	 1,1
      34,067	     7002,39	 0,8
     34,0689	     7005,13	 1,5
     34,0709	      7008,5	 1,6
     34,0728	     7011,34	 1,5
     34,0748	     7023,22	 1,3
     34,0767	     7035,28	 0,8
     34,0787	     7043,95	 1,5
     34,0806	     7055,16	 2,2
     34,0826	     7090,25	 1,7
     34,0846	     7119,88	 2,5
     34,0865	     7107,28	 2,9
     34,0885	     7132,84	 2,7
     34,0904	     7150,56	 2,1
     34,0924	     7140,41	 2,0
     34,0943	     7145,95	 2,7
     34,0963	     7154,93	 3,0
     34,0982	     7180,09	 3,5
     34,1002	      7191,8	 3,1
     34,1021	      7198,7	 3,2
     34,1041	        7193	 2,6
     34,1061	     7208,94	 3,2
      34,108	     7243,34	 3,6
       34,11	     7284,35	 3,7
     34,1119	     7306,81	 4,5
     34,1139	     7312,02	 4,7
     34,1158	     7308,39	 4,4
     34,1178	     7287,82	 3,2
     34,1197	     7294,82	 4,3
     34,1217	     7316,97	 4,1
     34,1237	     7334,55	 4,5
     34,1256	     7357,57	 5,5
     34,1276	     7361,74	 5,3
     34,1295	        7371	 5,0
     34,1315	     7391,84	 4,6
     34,1334	     7389,64	 4,6
     34,1354	     7392,39	 4,6
     34,1373	     7394,77	 5,3
     34,1393	     7423,41	 5,4
     34,1413	      7444,3	 6,4
     34,1432	     7462,23	 6,0
     34,1452	     7455,88	 5,5
     34,1471	     7461,26	 5,8
     34,1491	      7478,8	 6,0
      34,151	     7498,18	 6,3
      34,153	     7530,97	 7,0
     34,1549	     7524,35	 7,3
     34,1569	     7553,31	 7,2
     34,1588	     7559,06	 7,0
     34,1608	      7581,3	 7,3
     34,1628	     7573,35	 7,3
     34,1647	     7570,28	 7,4
     34,1667	     7585,93	 7,3
     34,1686	     7614,63	 7,8
     34,1706	      7632,2	 6,9
     34,1725	     7650,39	 8,5
     34,1745	     7662,31	 8,3
     34,1764	     7674,59	 8,6
     34,1784	     7697,89	 7,9
     34,1804	     7708,46	 8,1
     34,1823	     7721,85	 9,2
     34,1843	     7721,63	 9,6
     34,1862	     7735,87	 9,3
     34,1882	     7749,87	 9,0
     34,1901	     7750,42	 8,2
     34,1921	     7768,61	 8,9
      34,194	     7790,38	 8,7
      34,196	     7828,57	 9,7
     34,1979	     7818,79	 9,4
     34,1999	     7838,79	10,3
     34,2019	     7865,97	10,7
     34,2038	     7860,71	10,3
     34,2058	     7859,44	 9,8
     34,2077	     7881,01	10,5
     34,2097	     7908,54	11,4
     34,2116	     7923,28	11,3
     34,2136	     7923,32	10,3
     34,2155	     7930,44	11,0
     34,2175	      7940,3	11,3
     34,2195	     7981,12	11,6
     34,2214	     7991,93	12,0
     34,2234	     8013,72	12,3
     34,2253	     8038,77	11,5
     34,2273	     8045,81	11,9
     34,2292	     8055,59	12,2
     34,2312	      8076,1	12,5
     34,2331	     8096,08	13,2
     34,2351	     8104,43	13,5
      34,237	     8106,56	12,6
      34,239	      8115,4	13,2
      34,241	     8126,05	12,9
     34,2429	     8136,46	12,7
     34,2449	     8154,04	13,9
     34,2468	     8166,66	13,6
     34,2488	     8179,36	14,1
     34,2507	     8197,92	14,0
     34,2527	     8218,53	13,6
     34,2546	     8239,98	13,7
     34,2566	      8256,7	14,0
     34,2586	     8285,93	14,6
     34,2605	     8283,46	15,6
     34,2625	     8291,46	14,7
     34,2644	     8295,66	14,9
     34,2664	     8318,27	15,1
     34,2683	     8344,88	15,0
     34,2703	     8351,99	15,2
     34,2722	     8367,79	16,2
     34,2742	     8391,74	16,0
     34,2761	     8401,71	15,6
     34,2781	     8427,09	15,8
     34,2801	     8443,77	17,1
      34,282	     8456,19	16,6
      34,284	     8465,54	18,3
     34,2859	     8468,23	17,3
     34,2879	     8496,15	17,3
     34,2898	     8521,93	17,4
     34,2918	     8526,16	18,4
     34,2937	     8525,79	17,7
     34,2957	     8540,08	17,7
     34,2977	     8559,71	18,1
     34,2996	     8566,76	18,1
     34,3016	     8584,49	18,7
     34,3035	     8619,69	19,4
     34,3055	     8625,45	19,2
     34,3074	     8649,04	18,8
     34,3094	     8662,46	20,0
     34,3113	     8691,74	19,3
     34,3133	     8703,29	19,3
     34,3153	     8730,12	19,8
     34,3172	      8751,7	21,0
     34,3192	     8756,46	20,1
     34,3211	     8773,26	21,3
     34,3231	     8781,97	20,7
      34,325	      8790,5	20,8
      34,327	     8797,02	20,3
     34,3289	     8830,76	21,0
     34,3309	     8835,11	21,4
     34,3328	      8844,8	22,2
     34,3348	     8889,93	22,2
     34,3368	     8901,95	21,8
     34,3387	     8906,75	21,4
     34,3407	     8900,71	22,8
     34,3426	     8925,41	23,7
     34,3446	     8932,08	23,5
     34,3465	      8940,5	23,6
     34,3485	     8955,92	23,0
     34,3504	     8974,89	22,9
     34,3524	     8987,76	24,2
     34,3544	      9004,5	24,3
     34,3563	     9035,88	23,8
     34,3583	     9045,22	24,4
     34,3602	     9057,23	24,6
     34,3622	     9077,46	25,1
     34,3641	     9083,52	25,3
     34,3661	     9113,55	25,4
      34,368	     9150,75	25,5
       34,37	     9144,52	25,8
     34,3719	     9171,34	26,3
     34,3739	     9183,17	26,7
     34,3759	     9184,33	27,0
     34,3778	     9199,61	26,3
     34,3798	     9195,69	26,4
     34,3817	     9209,97	27,0
     34,3837	     9225,42	27,1
     34,3856	     9259,71	27,6
     34,3876	     9278,53	28,2
     34,3895	     9278,51	28,1
     34,3915	     9271,52	27,8
     34,3935	     9304,33	28,9
     34,3954	     9331,07	29,2
     34,3974	     9348,17	28,4
     34,3993	     9346,91	29,3
     34,4013	     9374,11	29,7
     34,4032	     9389,07	29,7
     34,4052	     9395,26	29,7
     34,4071	     9423,04	30,2
     34,4091	     9411,55	30,1
      34,411	     9423,07	31,1
      34,413	     9456,74	31,0
      34,415	     9469,03	30,9
     34,4169	     9450,03	31,9
     34,4189	     9484,98	32,2
     34,4208	     9485,74	32,3
     34,4228	     9495,85	32,4
     34,4247	     9525,89	32,3
     34,4267	     9553,85	32,8
     34,4286	     9537,76	33,3
     34,4306	     9529,35	32,8
     34,4326	     9569,16	33,5
     34,4345	     9578,57	34,0
     34,4365	     9591,82	33,4
     34,4384	     9581,29	33,3
     34,4404	     9594,66	34,4
     34,4423	     9597,71	34,5
     34,4443	      9600,8	35,3
     34,4462	     9605,66	34,8
     34,4482	     9611,93	34,8
     34,4501	     9615,85	35,6
     34,4521	     9638,82	36,1
     34,4541	     9652,55	35,7
      34,456	      9669,7	35,9
      34,458	     9677,61	35,7
     34,4599	     9713,11	36,6
     34,4619	     9711,77	37,6
     34,4638	     9727,01	37,2
     34,4658	     9727,88	37,8
     34,4677	     9712,63	37,4
     34,4697	        9749	37,7
     34,4717	     9728,63	38,8
     34,4736	     9744,86	39,1
     34,4756	     9734,59	38,5
     34,4775	     9736,75	40,0
     34,4795	     9747,31	39,5
     34,4814	      9766,2	38,4
     34,4834	     9780,73	40,1
     34,4853	     9797,99	40,3
     34,4873	     9788,07	40,5
     34,4892	     9794,77	40,8
     34,4912	     9791,47	40,6
     34,4932	     9804,29	41,2
     34,4951	     9809,24	42,2
     34,4971	     9814,79	42,0
      34,499	     9807,92	41,2
      34,501	     9818,71	41,6
     34,5029	     9828,16	42,3
     34,5049	     9833,45	43,3
     34,5068	     9813,61	42,1
     34,5088	     9832,89	42,7
     34,5108	     9838,29	42,8
     34,5127	     9807,89	44,6
     34,5147	     9809,58	44,2
     34,5166	     9825,86	44,7
     34,5186	     9824,09	43,8
     34,5205	     9857,03	44,7
     34,5225	     9871,14	44,8
     34,5244	     9864,62	44,6
     34,5264	     9854,95	45,7
     34,5283	     9851,16	46,3
     34,5303	     9827,29	46,4
     34,5323	     9851,65	46,0
     34,5342	      9843,1	46,4
     34,5362	      9848,2	46,7
     34,5381	     9842,16	47,1
     34,5401	     9847,55	48,2
      34,542	     9820,86	47,0
      34,544	     9861,14	47,7
     34,5459	     9869,36	47,9
     34,5479	     9854,25	48,9
     34,5499	     9849,27	49,0
     34,5518	     9836,58	48,7
     34,5538	     9860,31	49,2
     34,5557	      9828,5	49,7
     34,5577	     9840,54	50,2
     34,5596	     9825,47	49,8
     34,5616	     9833,04	49,6
     34,5635	     9837,91	50,9
     34,5655	     9823,78	50,0
     34,5674	     9837,35	50,4
     34,5694	     9841,31	51,5
     34,5714	     9840,14	51,2
     34,5733	     9844,11	51,6
     34,5753	     9813,95	51,6
     34,5772	     9835,65	52,5
     34,5792	     9849,14	52,3
     34,5811	     9817,95	52,6
     34,5831	     9813,25	52,8
      34,585	     9791,89	53,1
      34,587	     9801,64	53,1
      34,589	     9779,16	53,0
     34,5909	     9788,92	53,9
     34,5929	     9790,34	54,1
     34,5948	     9775,06	53,7
     34,5968	     9761,59	54,9
     34,5987	     9746,13	54,9
     34,6007	     9771,87	55,2
     34,6026	      9770,1	54,5
     34,6046	     9740,76	55,6
     34,6065	     9759,63	56,1
     34,6085	     9722,06	55,5
     34,6105	     9733,97	56,6
     34,6124	     9738,69	56,7
     34,6144	     9722,67	56,8
     34,6163	     9722,05	57,1
     34,6183	     9694,35	57,5
     34,6202	      9695,9	57,7
     34,6222	     9694,24	57,2
     34,6241	     9683,18	57,7
     34,6261	     9673,64	58,3
     34,6281	     9685,13	58,7
       34,63	     9651,62	57,8
      34,632	     9623,52	58,9
     34,6339	     9610,13	58,8
     34,6359	      9625,3	59,2
     34,6378	     9616,13	58,8
     34,6398	     9617,28	59,3
     34,6417	     9596,33	60,6
     34,6437	     9573,03	60,1
     34,6456	     9588,42	59,6
     34,6476	     9582,62	60,1
     34,6496	     9584,01	61,5
     34,6515	     9579,03	61,5
     34,6535	     9545,06	60,6
     34,6554	     9535,59	62,0
     34,6574	     9524,89	62,7
     34,6593	     9510,09	62,1
     34,6613	     9491,33	62,1
     34,6632	     9483,17	62,5
     34,6652	     9452,54	63,3
     34,6672	     9481,84	62,5
     34,6691	     9460,21	62,9
     34,6711	     9435,64	63,5
      34,673	     9413,26	64,1
      34,675	     9414,53	63,5
     34,6769	     9394,99	63,4
     34,6789	     9407,28	64,1
     34,6808	     9400,29	64,5
     34,6828	     9393,06	64,7
     34,6847	     9364,18	64,6
     34,6867	     9337,75	65,4
     34,6887	     9326,63	65,2
     34,6906	     9312,98	64,9
     34,6926	      9294,8	64,9
     34,6945	     9291,49	65,4
     34,6965	     9300,77	66,3
     34,6984	      9293,4	66,0
     34,7004	     9266,17	66,5
     34,7023	     9245,97	67,1
