X-Data [Hz]	Piezo (M - Filtered) [mV]	Phase [Deg]	Piezo (M - Filtered) [mV]	Phase [Deg]	
	002: [07-09-24 15:47]		003: [07-09-24 15:49]	
        41,5	     145,135	-103,1	     152,756	-104,4
      41,502	      143,93	-99,5	     151,852	-102,0
     41,5039	     146,324	-100,5	     151,852	-102,9
     41,5059	     150,151	-100,3	     152,946	-101,9
     41,5078	     152,929	-102,5	     153,742	-104,2
     41,5098	     152,149	-100,7	     152,587	-99,9
     41,5117	     152,372	-99,1	     152,413	-102,5
     41,5137	     154,242	-100,7	     155,135	-102,5
     41,5156	      153,03	-100,8	     156,569	-101,0
     41,5176	     152,136	-101,8	     154,668	-101,9
     41,5196	     152,677	-101,0	      153,35	-101,5
     41,5215	     155,287	-100,3	     155,077	-101,7
     41,5235	      155,61	-102,2	     154,179	-100,7
     41,5254	     156,164	-100,8	     156,248	-102,7
     41,5274	     155,193	-103,3	     156,449	-103,5
     41,5293	     155,832	-101,9	     156,854	-101,1
     41,5313	     157,085	-102,1	     155,284	-102,2
     41,5332	     158,186	-102,8	     157,419	-101,2
     41,5352	     156,399	-101,0	     157,185	-102,4
     41,5371	      156,62	-101,3	      157,18	-102,8
     41,5391	     158,516	-101,0	     156,432	-102,4
     41,5411	     156,953	-102,9	     157,169	-103,8
      41,543	     157,193	-103,0	     157,065	-100,0
      41,545	     157,598	-100,1	     157,282	-101,3
     41,5469	     158,274	-101,1	      160,09	-100,2
     41,5489	     159,173	-100,1	     159,934	-101,3
     41,5508	     159,171	-100,4	     159,679	-101,6
     41,5528	     158,732	-102,6	     159,307	-100,6
     41,5547	     159,549	-100,8	     160,234	-102,4
     41,5567	     160,288	-102,3	     160,039	-101,4
     41,5587	     160,337	-100,0	      160,79	-102,8
     41,5606	     160,857	-100,7	     161,456	-103,0
     41,5626	     161,299	-103,0	     161,053	-101,6
     41,5645	     160,306	-100,6	     161,548	-102,0
     41,5665	     161,805	-100,5	     161,737	-98,7
     41,5684	     161,615	-99,6	     162,407	-103,2
     41,5704	     162,314	-98,9	     163,739	-101,9
     41,5723	     161,939	-101,6	     163,847	-100,2
     41,5743	     162,119	-100,4	     164,024	-102,7
     41,5762	     163,433	-102,6	     163,177	-100,5
     41,5782	     162,986	-101,8	     163,587	-101,3
     41,5802	     161,808	-101,3	     164,365	-101,7
     41,5821	     163,146	-99,7	     164,564	-101,6
     41,5841	     166,027	-100,5	     164,539	-101,5
      41,586	     166,102	-101,8	     163,665	-100,2
      41,588	     165,715	-100,6	     164,491	-101,6
     41,5899	      165,02	-100,9	     165,696	-99,7
     41,5919	     164,385	-99,5	     165,235	-98,7
     41,5938	     165,643	-99,1	     166,139	-102,2
     41,5958	     166,917	-102,8	     165,977	-101,3
     41,5978	     166,067	-101,2	     167,269	-102,0
     41,5997	     166,361	-102,2	     167,794	-101,0
     41,6017	     166,681	-102,1	     168,279	-99,2
     41,6036	     166,899	-99,0	     167,782	-100,9
     41,6056	     167,608	-100,1	     168,575	-100,2
     41,6075	     167,604	-99,4	     169,084	-101,6
     41,6095	     168,785	-99,5	     168,564	-99,8
     41,6114	     168,537	-100,5	     168,965	-99,8
     41,6134	     168,327	-99,9	     168,474	-100,6
     41,6153	     167,955	-100,5	     168,942	-99,5
     41,6173	     168,834	-99,3	     169,865	-98,4
     41,6193	     169,825	-98,5	     171,325	-101,6
     41,6212	     171,115	-101,6	     170,918	-100,2
     41,6232	     172,413	-99,7	     170,945	-100,9
     41,6251	     172,466	-102,8	     170,724	-100,4
     41,6271	     170,711	-98,9	     170,401	-99,5
      41,629	     170,575	-97,6	     172,389	-100,6
      41,631	     171,457	-100,6	      173,79	-99,3
     41,6329	     172,305	-99,0	     174,069	-101,5
     41,6349	     173,772	-101,6	     172,534	-100,0
     41,6369	     173,897	-101,9	     172,701	-100,9
     41,6388	     173,649	-99,2	     173,277	-100,5
     41,6408	     173,833	-100,9	     173,904	-100,6
     41,6427	     173,214	-98,1	     175,467	-101,6
     41,6447	     174,818	-98,7	     175,149	-101,6
     41,6466	     174,865	-100,4	     174,552	-98,6
     41,6486	     175,046	-100,0	     174,549	-101,8
     41,6505	     175,415	-100,0	     175,863	-99,1
     41,6525	     175,781	-99,6	     177,601	-98,9
     41,6544	     176,359	-99,6	     177,388	-98,8
     41,6564	     176,982	-100,6	     177,785	-98,7
     41,6584	     175,429	-98,6	     177,469	-100,8
     41,6603	     176,534	-101,0	     176,808	-99,3
     41,6623	     177,518	-101,1	     178,697	-100,4
     41,6642	     176,873	-99,2	     178,863	-100,0
     41,6662	     178,297	-99,4	     178,755	-98,1
     41,6681	      177,93	-97,8	     179,444	-100,7
     41,6701	     178,254	-98,3	       179,7	-98,2
      41,672	     179,222	-99,7	     179,521	-100,0
      41,674	     179,672	-99,4	     180,511	-100,6
      41,676	     179,607	-100,5	     179,647	-98,2
     41,6779	     179,519	-98,8	     180,287	-98,1
     41,6799	     179,765	-99,2	     182,965	-100,3
     41,6818	     181,235	-99,7	     182,739	-99,4
     41,6838	     181,829	-98,5	     183,355	-100,3
     41,6857	     183,052	-100,9	     183,327	-98,9
     41,6877	     182,627	-100,5	     182,849	-98,8
     41,6896	     182,709	-99,5	     182,898	-100,8
     41,6916	     183,103	-99,8	      183,98	-98,2
     41,6936	     182,719	-97,5	     186,018	-99,6
     41,6955	      183,29	-97,5	     183,538	-97,6
     41,6975	     184,504	-100,4	      183,45	-99,1
     41,6994	     184,886	-98,7	     185,075	-98,8
     41,7014	     186,354	-101,8	     185,665	-98,5
     41,7033	     185,277	-99,7	     186,415	-98,0
     41,7053	     184,403	-97,4	       187,6	-98,5
     41,7072	     185,695	-99,7	     188,516	-99,7
     41,7092	     186,133	-97,3	     187,503	-100,5
     41,7111	     186,779	-97,5	     186,498	-98,1
     41,7131	     187,522	-100,4	     186,285	-98,9
     41,7151	     187,403	-98,0	     188,532	-99,5
      41,717	     188,361	-100,2	     189,903	-96,8
      41,719	     188,745	-98,9	       191,6	-100,1
     41,7209	     189,763	-97,7	     190,998	-99,8
     41,7229	     190,256	-99,7	      190,08	-98,9
     41,7248	     189,473	-98,7	     190,599	-100,6
     41,7268	     189,756	-98,9	     190,039	-96,8
     41,7287	      190,97	-100,0	     191,094	-97,6
     41,7307	     192,408	-98,0	     191,722	-97,9
     41,7327	     191,847	-99,2	     192,468	-98,1
     41,7346	     190,466	-98,5	      193,92	-98,9
     41,7366	     192,338	-98,6	     194,449	-99,5
     41,7385	      192,99	-98,8	     195,289	-98,0
     41,7405	     194,443	-97,2	     196,241	-99,5
     41,7424	     194,211	-98,5	     195,482	-97,9
     41,7444	     193,982	-97,8	     196,055	-98,5
     41,7463	     194,644	-97,3	     195,296	-99,0
     41,7483	     194,631	-97,5	     194,664	-99,2
     41,7502	     195,317	-97,4	     196,835	-99,1
     41,7522	     195,687	-95,9	     198,762	-97,4
     41,7542	     196,523	-98,9	      198,31	-97,8
     41,7561	     197,644	-97,2	     199,811	-97,9
     41,7581	     197,234	-98,0	     199,627	-96,4
       41,76	     196,609	-97,3	     199,118	-95,0
      41,762	     197,548	-95,5	      199,59	-98,6
     41,7639	     197,763	-98,5	     200,041	-98,1
     41,7659	     198,434	-97,5	     199,995	-98,9
     41,7678	      200,93	-97,5	     200,458	-100,3
     41,7698	     200,827	-99,6	     201,217	-96,7
     41,7718	      200,15	-98,8	     203,197	-97,8
     41,7737	     201,285	-97,1	     203,253	-96,0
     41,7757	     201,779	-98,4	     203,248	-95,1
     41,7776	     200,926	-96,4	      203,76	-98,5
     41,7796	     201,804	-94,2	     204,494	-97,5
     41,7815	     202,507	-98,7	     204,608	-98,0
     41,7835	     201,643	-96,2	     204,246	-97,8
     41,7854	     201,934	-97,1	     203,124	-95,7
     41,7874	     203,888	-97,5	     203,745	-96,3
     41,7893	     205,016	-95,4	     206,829	-96,4
     41,7913	     206,191	-97,5	     207,169	-96,6
     41,7933	     206,216	-97,8	     208,188	-99,1
     41,7952	     206,721	-96,0	     208,138	-97,0
     41,7972	     207,375	-97,7	     208,294	-97,5
     41,7991	     208,196	-96,7	     208,791	-98,0
     41,8011	      208,81	-99,3	     209,474	-95,4
      41,803	     207,747	-98,2	      211,38	-96,3
      41,805	      208,78	-95,1	     209,977	-95,9
     41,8069	     209,589	-96,7	     211,201	-97,2
     41,8089	     211,613	-96,6	     212,279	-98,7
     41,8109	     209,784	-96,2	     213,392	-96,8
     41,8128	     210,601	-97,0	     212,678	-95,7
     41,8148	      211,88	-96,2	     212,672	-96,5
     41,8167	     211,534	-96,8	     212,679	-96,3
     41,8187	     212,195	-97,8	     213,641	-95,7
     41,8206	     213,495	-96,1	     214,784	-97,0
     41,8226	     215,224	-96,2	     216,155	-95,8
     41,8245	     214,778	-97,8	     215,586	-96,8
     41,8265	     213,527	-95,9	     215,415	-97,1
     41,8284	     214,075	-95,3	     215,891	-95,6
     41,8304	     215,306	-96,3	     217,067	-96,5
     41,8324	     216,095	-95,3	     217,783	-97,0
     41,8343	     216,994	-96,3	     218,829	-95,8
     41,8363	     217,335	-97,6	     219,048	-96,1
     41,8382	     216,552	-95,1	     220,669	-96,4
     41,8402	     217,238	-96,2	     220,552	-95,2
     41,8421	     219,043	-96,1	     221,076	-98,3
     41,8441	     220,969	-94,0	      221,59	-96,6
      41,846	     221,897	-97,0	     221,809	-95,7
      41,848	     221,507	-96,9	     221,325	-95,4
       41,85	     221,906	-96,8	     223,519	-96,1
     41,8519	      222,82	-96,0	     225,638	-95,4
     41,8539	     223,309	-94,3	     225,382	-96,5
     41,8558	     223,609	-95,2	      224,65	-95,2
     41,8578	     223,585	-95,8	     224,814	-96,1
     41,8597	     222,796	-95,9	     226,216	-96,3
     41,8617	     223,395	-94,1	     227,129	-94,1
     41,8636	     227,117	-95,0	     228,435	-95,1
     41,8656	     226,326	-94,4	     228,908	-93,9
     41,8675	      226,26	-96,0	     228,617	-93,8
     41,8695	     226,937	-95,7	     229,379	-95,8
     41,8715	     228,666	-95,3	      229,89	-95,3
     41,8734	     228,829	-95,0	      229,53	-95,3
     41,8754	     228,632	-95,5	     231,106	-96,0
     41,8773	     228,463	-95,4	     232,184	-92,8
     41,8793	      230,07	-95,4	     231,843	-93,6
     41,8812	     229,603	-95,0	     233,816	-94,1
     41,8832	     230,538	-93,1	     233,831	-93,9
     41,8851	     231,148	-94,2	     234,549	-96,5
     41,8871	     232,114	-92,7	     233,611	-96,7
     41,8891	     233,319	-96,2	     233,759	-93,8
      41,891	     232,732	-95,5	     234,869	-95,2
      41,893	     233,527	-93,8	     236,728	-93,3
     41,8949	     233,804	-94,1	     237,409	-93,1
     41,8969	     235,543	-95,0	     238,676	-94,7
     41,8988	     236,313	-93,9	      240,17	-93,8
     41,9008	     238,655	-94,0	     241,165	-94,5
     41,9027	     239,475	-95,0	     242,466	-95,8
     41,9047	      238,93	-93,9	     241,343	-92,9
     41,9066	     238,734	-94,2	     241,087	-93,8
     41,9086	     238,535	-93,5	     242,918	-93,2
     41,9106	     239,585	-93,5	     243,735	-92,3
     41,9125	     239,852	-93,9	      243,74	-93,4
     41,9145	     240,355	-94,4	     244,861	-94,1
     41,9164	     242,443	-93,3	     244,775	-93,6
     41,9184	     243,442	-94,5	     245,507	-94,5
     41,9203	     244,649	-91,6	     246,152	-94,9
     41,9223	     245,966	-92,0	     246,425	-93,5
     41,9242	     245,822	-94,4	      247,14	-93,0
     41,9262	     246,137	-92,7	     246,879	-93,0
     41,9282	     246,536	-93,3	     247,434	-92,0
     41,9301	     247,894	-95,1	     249,474	-94,1
     41,9321	     248,594	-94,3	     250,341	-93,5
      41,934	     248,939	-93,0	     252,788	-93,7
      41,936	     249,405	-94,6	     254,467	-93,7
     41,9379	     249,266	-91,5	     254,841	-92,6
     41,9399	     249,042	-90,3	     253,761	-92,0
     41,9418	     250,005	-92,8	     254,511	-94,3
     41,9438	     251,763	-91,4	     255,949	-92,7
     41,9457	     252,713	-93,7	     256,887	-91,4
     41,9477	     254,334	-93,9	     256,549	-92,8
     41,9497	     253,955	-92,0	     257,164	-91,0
     41,9516	     254,308	-93,2	     257,092	-91,4
     41,9536	      255,63	-90,9	     259,656	-95,2
     41,9555	     257,215	-91,0	     260,522	-93,0
     41,9575	      258,12	-92,0	     261,502	-92,2
     41,9594	     258,469	-92,7	     263,176	-93,7
     41,9614	     258,318	-91,8	     263,572	-91,1
     41,9633	      258,81	-92,1	      263,48	-90,6
     41,9653	     260,689	-91,6	     263,873	-92,6
     41,9673	     260,849	-91,6	     264,539	-91,2
     41,9692	     261,951	-90,7	     266,466	-91,8
     41,9712	     263,886	-91,9	     267,922	-92,6
     41,9731	     265,357	-91,6	     268,266	-91,8
     41,9751	      265,75	-91,9	     268,536	-91,0
      41,977	     265,801	-92,5	     270,371	-93,2
      41,979	     265,934	-89,5	     270,358	-92,4
     41,9809	     266,875	-89,7	     270,947	-90,8
     41,9829	     267,122	-92,1	      272,08	-92,1
     41,9848	     269,435	-90,6	      273,48	-89,3
     41,9868	     269,752	-91,2	     274,142	-89,6
     41,9888	     270,925	-90,1	     276,773	-92,2
     41,9907	     270,965	-90,0	     276,849	-90,6
     41,9927	     272,226	-90,9	      276,89	-92,4
     41,9946	     272,868	-91,6	     277,941	-92,1
     41,9966	     273,408	-88,0	     278,572	-89,8
     41,9985	     274,027	-89,8	     278,102	-89,5
     42,0005	      275,59	-90,7	     279,462	-91,4
     42,0024	     277,421	-88,9	     280,548	-90,3
     42,0044	     278,966	-89,3	     281,879	-89,5
     42,0064	     279,345	-91,5	     282,973	-90,8
     42,0083	     280,141	-90,4	     285,093	-88,4
     42,0103	     280,511	-90,3	     285,925	-89,4
     42,0122	     280,745	-91,2	     287,762	-91,6
     42,0142	     282,983	-87,8	     288,564	-90,2
     42,0161	     284,451	-88,3	     287,467	-88,5
     42,0181	     284,454	-89,8	      288,46	-91,5
       42,02	     285,028	-88,5	     289,309	-90,7
      42,022	     285,669	-90,0	     289,887	-88,5
     42,0239	     285,643	-89,7	     290,891	-89,8
     42,0259	     287,174	-89,5	      293,34	-88,2
     42,0279	     288,179	-88,7	     294,492	-88,2
     42,0298	     289,082	-89,8	     296,487	-90,6
     42,0318	     289,056	-89,2	     295,371	-88,0
     42,0337	     290,346	-88,3	     295,415	-88,2
     42,0357	     291,288	-88,3	     295,623	-90,4
     42,0376	     292,981	-88,0	     299,676	-89,4
     42,0396	     293,948	-87,7	     302,041	-88,1
     42,0415	     295,665	-87,6	     301,946	-89,2
     42,0435	      295,39	-87,1	      302,31	-88,2
     42,0455	     296,183	-85,5	     302,463	-87,3
     42,0474	      298,31	-89,6	     304,693	-87,1
     42,0494	     297,866	-88,7	     306,911	-87,9
     42,0513	     300,006	-87,1	     307,913	-86,2
     42,0533	     301,255	-87,7	     309,556	-89,4
     42,0552	     303,075	-87,5	     310,472	-88,4
     42,0572	     304,004	-86,6	     309,825	-86,6
     42,0591	     305,523	-88,5	     311,386	-88,3
     42,0611	     304,896	-88,2	     312,092	-87,0
      42,063	     306,275	-86,6	     314,861	-86,1
      42,065	     307,509	-86,5	     316,133	-87,5
      42,067	     309,721	-87,0	     316,895	-86,7
     42,0689	     310,293	-85,6	     317,724	-84,7
     42,0709	     312,739	-88,2	     318,732	-86,3
     42,0728	     312,433	-89,1	     320,627	-87,5
     42,0748	     313,882	-85,3	     322,131	-85,8
     42,0767	     316,021	-86,0	     322,447	-86,2
     42,0787	     315,982	-85,1	     322,536	-88,0
     42,0806	     317,127	-85,1	      323,61	-87,8
     42,0826	     316,819	-85,0	     324,129	-86,7
     42,0846	     319,284	-86,0	     325,849	-87,5
     42,0865	     320,629	-84,7	     328,021	-85,9
     42,0885	     321,713	-86,0	     329,595	-84,8
     42,0904	     322,667	-86,7	     331,856	-86,0
     42,0924	     323,429	-85,2	     333,886	-84,1
     42,0943	     324,544	-84,7	     334,093	-83,5
     42,0963	      326,52	-86,0	     334,486	-83,9
     42,0982	     328,157	-86,2	     336,362	-85,9
     42,1002	     330,707	-83,1	     337,655	-83,9
     42,1021	     331,269	-84,6	     337,806	-85,9
     42,1041	     331,394	-83,1	     340,833	-86,0
     42,1061	       332,1	-83,7	     341,252	-83,4
      42,108	     333,962	-85,0	     343,126	-84,7
       42,11	      335,33	-84,2	     345,693	-84,4
     42,1119	     335,784	-83,7	     347,548	-83,3
     42,1139	     337,918	-83,6	     347,825	-83,5
     42,1158	     339,782	-84,1	     348,629	-83,7
     42,1178	     340,973	-83,0	     351,392	-81,7
     42,1197	     341,536	-83,4	     351,826	-82,1
     42,1217	     343,703	-84,6	     354,614	-84,4
     42,1237	     345,437	-84,9	     355,979	-83,4
     42,1256	     347,052	-82,0	     356,778	-83,2
     42,1276	     348,349	-83,8	     357,758	-84,5
     42,1295	     349,264	-80,7	     359,476	-82,5
     42,1315	     351,433	-81,6	     361,103	-81,0
     42,1334	     352,362	-83,7	     363,239	-82,4
     42,1354	     352,501	-82,7	     365,442	-82,9
     42,1373	     354,146	-81,0	     365,952	-79,4
     42,1393	     355,293	-81,2	     365,986	-80,6
     42,1413	     355,983	-82,4	     366,981	-81,2
     42,1432	     358,047	-81,8	     368,751	-80,3
     42,1452	      358,97	-81,5	     370,576	-79,6
     42,1471	     361,267	-82,4	     374,343	-82,2
     42,1491	     362,202	-81,8	     374,852	-81,6
      42,151	      365,15	-80,2	     376,521	-81,1
      42,153	     366,664	-82,0	     378,576	-80,2
     42,1549	     367,328	-79,5	     381,151	-81,9
     42,1569	     369,189	-79,8	     382,264	-81,0
     42,1588	     369,903	-81,1	      382,23	-81,6
     42,1608	     370,728	-80,6	     384,218	-82,1
     42,1628	     373,225	-78,4	     387,024	-79,0
     42,1647	     375,207	-78,9	     388,836	-78,8
     42,1667	     377,154	-80,6	     390,299	-79,8
     42,1686	     377,863	-79,8	       393,3	-79,4
     42,1706	     381,052	-80,0	     395,421	-77,6
     42,1725	     381,411	-80,1	     395,926	-77,5
     42,1745	     383,189	-78,5	     398,025	-79,3
     42,1764	     384,886	-78,1	      398,83	-77,0
     42,1784	      385,66	-79,7	     400,729	-79,8
     42,1804	     386,238	-80,1	     402,507	-79,0
     42,1823	     388,477	-76,1	      404,63	-77,0
     42,1843	     390,616	-77,4	     405,336	-78,0
     42,1862	     391,376	-76,9	     408,361	-79,6
     42,1882	     392,507	-76,5	     409,658	-75,2
     42,1901	     395,599	-76,6	     411,937	-76,3
     42,1921	     397,503	-77,7	     414,065	-77,6
      42,194	     399,188	-76,4	     416,195	-75,7
      42,196	      401,09	-75,8	     417,513	-74,4
     42,1979	     403,257	-75,8	      419,23	-76,7
     42,1999	     406,165	-77,2	     420,854	-75,6
     42,2019	     407,338	-76,2	     424,646	-74,3
     42,2038	     409,804	-76,5	      425,66	-75,2
     42,2058	     410,907	-77,7	     429,006	-76,3
     42,2077	     412,044	-74,5	      429,76	-75,2
     42,2097	     414,484	-74,2	     431,639	-74,8
     42,2116	     418,106	-75,2	      433,73	-75,2
     42,2136	     420,192	-74,9	     438,153	-75,0
     42,2155	     422,386	-72,8	     439,013	-75,0
     42,2175	     423,848	-74,6	     440,367	-74,6
     42,2195	     423,978	-74,0	     442,592	-74,7
     42,2214	      426,13	-71,4	     445,084	-71,2
     42,2234	     428,874	-74,2	     445,528	-72,7
     42,2253	     430,161	-73,1	      449,15	-73,1
     42,2273	     431,148	-73,7	     451,344	-72,8
     42,2292	     432,218	-71,4	     452,546	-70,7
     42,2312	     433,923	-76,0	     453,847	-71,3
     42,2331	     436,015	-74,0	     457,844	-72,1
     42,2351	     438,413	-71,2	     458,937	-70,3
      42,237	     440,675	-72,8	     461,291	-72,3
      42,239	     441,769	-73,0	     462,614	-71,4
