X-Data [Hz]	Piezo (M - Filtered) [mV]	Phase [Deg]	Piezo (M - Filtered) [mV]	Phase [Deg]	
	002: [07-09-24 15:17]		003: [07-09-24 15:20]	
        41,5	     1605,91	-55,0	     1685,59	-58,4
      41,502	     1632,08	-56,5	     1685,94	-58,2
     41,5039	     1647,88	-56,1	     1684,71	-56,9
     41,5059	     1660,44	-56,6	     1686,61	-57,9
     41,5078	     1677,42	-55,0	     1684,56	-58,2
     41,5098	     1685,45	-56,6	     1672,91	-56,9
     41,5117	     1671,45	-56,0	     1687,18	-58,1
     41,5137	     1673,58	-56,1	      1690,1	-55,9
     41,5156	     1689,35	-57,8	     1702,36	-56,2
     41,5176	     1694,05	-56,3	     1700,53	-57,2
     41,5196	     1702,65	-57,2	     1704,47	-56,6
     41,5215	     1699,17	-55,8	      1705,5	-56,0
     41,5235	     1710,74	-58,2	     1704,82	-55,4
     41,5254	     1715,51	-55,2	     1721,32	-58,2
     41,5274	     1712,63	-55,8	     1710,89	-56,9
     41,5293	      1702,4	-57,7	     1698,37	-58,9
     41,5313	     1718,64	-54,8	     1710,91	-57,0
     41,5332	        1718	-57,6	     1726,25	-56,4
     41,5352	     1731,59	-56,5	      1739,7	-59,4
     41,5371	     1727,74	-57,0	     1744,04	-56,4
     41,5391	     1721,93	-56,3	     1730,61	-58,1
     41,5411	     1728,06	-55,2	     1728,17	-57,0
      41,543	     1726,76	-58,5	     1733,71	-57,5
      41,545	     1728,19	-59,0	     1753,37	-57,2
     41,5469	     1731,77	-57,6	     1746,65	-56,3
     41,5489	     1726,98	-57,5	     1738,13	-57,1
     41,5508	     1731,04	-54,8	     1735,38	-55,4
     41,5528	     1754,36	-57,7	     1744,18	-55,6
     41,5547	      1768,9	-56,7	     1745,81	-56,1
     41,5567	      1757,9	-57,5	     1749,74	-59,4
     41,5587	     1742,78	-54,5	     1761,91	-59,3
     41,5606	     1747,71	-53,6	     1765,68	-57,6
     41,5626	     1747,82	-55,7	     1766,82	-55,7
     41,5645	      1759,6	-55,6	     1763,21	-56,7
     41,5665	     1756,81	-57,6	     1768,34	-57,2
     41,5684	     1764,62	-55,2	     1769,16	-59,4
     41,5704	     1754,87	-56,7	     1769,81	-55,0
     41,5723	     1768,78	-56,7	     1772,38	-56,8
     41,5743	     1774,39	-55,2	     1791,01	-53,5
     41,5762	     1786,05	-57,3	     1783,44	-54,6
     41,5782	     1785,51	-57,5	     1788,19	-56,6
     41,5802	     1785,85	-55,4	      1790,8	-56,0
     41,5821	     1783,95	-56,2	     1780,23	-57,2
     41,5841	     1775,52	-55,2	     1776,67	-54,6
      41,586	     1786,96	-56,2	     1784,93	-57,6
      41,588	     1782,68	-54,6	     1797,43	-56,4
     41,5899	     1810,32	-56,2	      1805,2	-57,2
     41,5919	     1804,07	-55,9	     1803,05	-56,6
     41,5938	     1803,58	-57,3	     1798,04	-54,7
     41,5958	     1807,91	-58,5	     1810,42	-55,8
     41,5978	     1797,99	-56,8	     1821,07	-55,6
     41,5997	     1817,03	-56,6	     1810,66	-56,2
     41,6017	     1812,92	-55,8	     1812,72	-55,2
     41,6036	     1812,03	-56,5	     1816,57	-54,0
     41,6056	     1805,75	-57,7	     1818,79	-54,9
     41,6075	     1819,35	-55,1	     1834,37	-55,2
     41,6095	     1823,11	-55,3	     1830,36	-55,8
     41,6114	     1833,35	-53,6	     1830,19	-55,4
     41,6134	      1818,2	-53,3	     1834,81	-54,8
     41,6153	     1826,12	-56,5	     1837,09	-55,7
     41,6173	     1835,98	-54,7	      1845,9	-55,1
     41,6193	     1848,64	-55,1	      1858,5	-57,3
     41,6212	      1841,1	-54,8	     1844,28	-54,9
     41,6232	     1842,06	-55,4	     1851,26	-54,0
     41,6251	     1843,52	-56,0	     1852,38	-54,1
     41,6271	     1836,07	-56,5	     1852,22	-53,4
      41,629	     1849,81	-56,7	     1855,12	-55,4
      41,631	     1855,27	-53,5	     1862,33	-55,3
     41,6329	     1855,48	-53,2	     1863,44	-55,2
     41,6349	     1858,12	-54,7	     1862,45	-54,6
     41,6369	     1872,71	-54,6	     1861,14	-54,2
     41,6388	     1871,25	-55,8	     1859,32	-56,5
     41,6408	     1871,97	-53,9	     1866,84	-56,1
     41,6427	     1875,91	-52,4	     1890,63	-57,0
     41,6447	     1890,71	-55,1	     1887,06	-57,3
     41,6466	     1882,56	-53,7	     1870,55	-53,4
     41,6486	     1872,43	-57,2	     1869,48	-54,8
     41,6505	     1879,72	-55,9	     1888,84	-55,2
     41,6525	     1889,22	-54,3	     1904,82	-54,5
     41,6544	        1882	-55,8	     1903,57	-54,3
     41,6564	     1883,68	-53,2	     1896,11	-53,4
     41,6584	     1894,69	-54,1	     1900,39	-55,5
     41,6603	     1912,32	-54,7	     1915,37	-53,2
     41,6623	     1892,86	-55,1	      1923,8	-55,8
     41,6642	     1904,55	-54,3	     1910,63	-56,4
     41,6662	      1926,5	-53,1	     1912,98	-54,6
     41,6681	     1920,75	-56,3	     1925,91	-56,0
     41,6701	     1911,62	-55,7	     1929,32	-53,0
      41,672	     1911,84	-53,9	     1947,54	-54,2
      41,674	      1917,6	-55,3	     1941,69	-55,4
      41,676	     1920,82	-55,1	     1934,14	-53,2
     41,6779	     1926,52	-54,2	     1922,15	-55,2
     41,6799	     1929,87	-55,6	      1938,5	-53,7
     41,6818	     1933,74	-53,7	     1949,97	-55,7
     41,6838	     1946,11	-55,8	     1945,38	-55,2
     41,6857	     1940,65	-53,6	     1950,59	-54,0
     41,6877	        1951	-53,1	     1957,79	-57,3
     41,6896	     1943,13	-54,3	     1943,68	-51,7
     41,6916	     1934,56	-52,3	      1946,1	-51,8
     41,6936	     1964,63	-56,4	     1956,34	-53,8
     41,6955	     1966,24	-53,7	     1964,46	-53,1
     41,6975	     1962,03	-54,3	     1965,88	-56,8
     41,6994	     1963,81	-54,7	     1983,82	-54,8
     41,7014	     1961,57	-53,4	     1978,36	-54,4
     41,7033	     1961,86	-54,1	     1986,33	-54,7
     41,7053	     1969,89	-53,6	     1975,46	-51,2
     41,7072	     1979,37	-52,8	     1982,81	-55,2
     41,7092	     1998,02	-54,4	     1984,29	-55,4
     41,7111	     1987,33	-53,5	     2000,99	-52,9
     41,7131	     1995,86	-53,6	     1996,58	-54,8
     41,7151	     1987,19	-54,2	     2000,44	-52,1
      41,717	     1994,25	-52,6	     2002,13	-53,1
      41,719	     1996,79	-55,6	     2008,67	-54,5
     41,7209	     2004,48	-54,2	     2014,28	-52,8
     41,7229	     2012,65	-52,5	     2011,12	-55,0
     41,7248	     2013,43	-53,4	     2012,27	-53,7
     41,7268	      2006,9	-52,0	     2020,49	-53,7
     41,7287	     2003,83	-51,8	     2029,25	-54,1
     41,7307	     2021,02	-54,1	     2019,67	-52,7
     41,7327	     2029,91	-53,8	     2038,84	-54,3
     41,7346	     2042,96	-54,4	     2036,13	-52,0
     41,7366	     2030,86	-54,5	     2039,66	-52,3
     41,7385	     2029,63	-52,7	      2026,8	-53,4
     41,7405	     2030,36	-53,5	     2040,65	-50,7
     41,7424	     2041,53	-53,0	     2060,75	-55,4
     41,7444	      2053,8	-53,9	     2065,04	-53,4
     41,7463	     2049,77	-51,9	     2066,15	-53,6
     41,7483	     2054,99	-51,4	     2066,73	-54,6
     41,7502	     2065,01	-53,7	     2066,29	-52,1
     41,7522	      2051,9	-53,2	     2074,18	-50,7
     41,7542	     2063,44	-54,1	     2067,27	-52,8
     41,7561	     2066,82	-53,7	     2071,18	-51,6
     41,7581	     2073,03	-51,2	     2078,25	-53,2
       41,76	     2076,64	-52,5	     2082,63	-51,6
      41,762	     2063,92	-51,8	     2079,36	-51,5
     41,7639	     2069,17	-52,0	     2091,15	-53,2
     41,7659	     2080,34	-53,1	     2094,47	-51,8
     41,7678	     2092,73	-51,4	     2112,24	-53,7
     41,7698	     2081,55	-52,8	      2115,9	-52,0
     41,7718	     2087,73	-52,3	     2102,87	-52,3
     41,7737	     2097,81	-51,5	     2109,45	-52,9
     41,7757	     2091,43	-53,4	     2095,34	-50,3
     41,7776	     2107,42	-51,9	     2111,32	-50,8
     41,7796	     2120,41	-52,9	     2132,76	-53,4
     41,7815	     2123,05	-54,6	     2123,83	-51,8
     41,7835	      2129,7	-49,7	     2137,32	-53,7
     41,7854	     2135,42	-51,0	     2123,31	-53,2
     41,7874	     2118,63	-52,4	     2126,44	-51,6
     41,7893	     2118,55	-50,4	     2142,83	-53,2
     41,7913	     2138,72	-53,4	     2143,51	-52,1
     41,7933	      2155,4	-51,7	     2162,81	-52,6
     41,7952	     2146,15	-52,4	      2172,2	-53,4
     41,7972	      2134,6	-53,0	     2148,49	-52,0
     41,7991	     2129,36	-50,2	     2144,87	-51,5
     41,8011	      2157,4	-51,8	     2154,79	-50,8
      41,803	     2160,93	-52,0	     2162,92	-49,8
      41,805	     2152,58	-51,3	     2188,85	-52,7
     41,8069	     2175,81	-53,2	      2180,6	-51,6
     41,8089	     2171,74	-52,6	     2186,71	-52,8
     41,8109	     2177,03	-49,5	     2168,28	-51,2
     41,8128	     2182,38	-52,7	     2167,93	-49,9
     41,8148	      2180,5	-52,0	     2185,79	-51,9
     41,8167	     2183,59	-52,2	     2200,07	-52,0
     41,8187	     2189,75	-53,0	     2204,24	-53,0
     41,8206	     2194,69	-50,6	     2214,95	-53,3
     41,8226	     2196,61	-51,0	     2220,26	-52,6
     41,8245	     2202,86	-49,7	     2211,98	-51,9
     41,8265	     2206,41	-49,3	     2220,06	-52,7
     41,8284	     2218,84	-52,6	     2231,94	-49,6
     41,8304	     2218,17	-51,7	      2233,7	-49,3
     41,8324	     2219,32	-51,9	     2233,75	-51,6
     41,8343	     2233,02	-52,4	     2239,37	-50,4
     41,8363	     2237,32	-51,5	     2230,54	-51,5
     41,8382	     2231,81	-50,2	      2248,2	-50,8
     41,8402	      2237,5	-51,3	     2254,33	-50,5
     41,8421	     2241,66	-49,5	     2262,38	-51,2
     41,8441	     2250,18	-53,2	     2256,82	-48,7
      41,846	     2244,48	-52,4	     2246,53	-53,5
      41,848	     2250,42	-50,3	        2274	-52,9
       41,85	     2262,77	-51,3	     2279,33	-51,0
     41,8519	     2258,68	-48,2	     2283,67	-51,1
     41,8539	     2275,31	-49,4	     2289,94	-49,1
     41,8558	     2270,78	-50,9	     2274,72	-48,5
     41,8578	     2263,32	-50,3	     2285,67	-51,7
     41,8597	     2277,69	-50,3	     2294,43	-49,5
     41,8617	     2297,73	-49,9	     2307,76	-51,5
     41,8636	     2295,83	-49,8	     2312,68	-52,6
     41,8656	     2297,92	-50,2	     2309,97	-48,6
     41,8675	     2300,47	-49,5	     2311,17	-49,6
     41,8695	     2302,44	-48,9	     2310,87	-48,6
     41,8715	      2315,3	-49,3	     2316,19	-48,9
     41,8734	     2328,91	-49,9	     2324,31	-50,2
     41,8754	     2317,66	-49,7	     2346,56	-50,5
     41,8773	     2314,71	-50,3	     2345,67	-49,6
     41,8793	      2320,5	-50,0	     2357,46	-50,4
     41,8812	     2335,07	-49,1	     2347,71	-49,8
     41,8832	     2333,33	-50,0	     2349,56	-48,9
     41,8851	     2328,36	-49,6	     2359,57	-49,2
     41,8871	     2337,94	-49,1	     2364,79	-49,1
     41,8891	     2348,93	-50,0	     2361,54	-49,3
      41,891	     2349,66	-48,6	     2367,15	-50,1
      41,893	      2358,9	-49,6	     2376,14	-49,4
     41,8949	     2375,44	-50,5	      2386,7	-50,7
     41,8969	     2374,35	-46,7	     2398,92	-48,5
     41,8988	     2369,55	-49,2	     2401,42	-49,7
     41,9008	     2376,61	-48,9	     2404,33	-50,1
     41,9027	     2379,84	-48,9	     2402,07	-48,8
     41,9047	     2386,03	-49,0	      2397,7	-48,9
     41,9066	     2392,82	-47,5	     2394,24	-49,0
     41,9086	     2400,89	-49,6	     2406,29	-48,7
     41,9106	     2399,64	-48,8	     2411,57	-48,0
     41,9125	     2397,27	-48,1	     2415,78	-48,7
     41,9145	     2412,94	-48,2	     2421,46	-48,9
     41,9164	     2420,46	-49,6	     2424,44	-49,5
     41,9184	     2417,61	-48,6	     2452,74	-48,7
     41,9203	     2431,14	-48,8	     2448,95	-48,1
     41,9223	     2437,97	-48,5	     2448,37	-48,0
     41,9242	      2427,8	-47,7	     2454,05	-48,0
     41,9262	     2431,94	-48,5	     2456,44	-48,5
     41,9282	     2430,05	-48,7	     2469,73	-48,6
     41,9301	     2454,47	-47,6	     2478,29	-48,2
     41,9321	     2471,22	-48,4	     2474,18	-48,4
      41,934	     2483,18	-49,6	     2482,41	-50,1
      41,936	     2472,29	-47,3	     2484,28	-48,2
     41,9379	     2483,13	-48,5	     2499,53	-47,8
     41,9399	      2479,3	-48,2	     2505,09	-46,6
     41,9418	     2494,04	-46,5	     2505,85	-44,1
     41,9438	      2493,4	-49,4	      2512,4	-49,7
     41,9457	     2491,47	-49,1	     2519,97	-47,6
     41,9477	     2498,92	-47,7	     2523,28	-48,7
     41,9497	     2493,43	-49,8	     2530,07	-49,1
     41,9516	     2499,93	-44,9	     2532,52	-46,5
     41,9536	     2510,08	-46,2	     2545,45	-46,5
     41,9555	     2533,97	-47,1	     2552,61	-48,2
     41,9575	     2528,57	-45,8	     2543,61	-45,8
     41,9594	     2526,48	-45,8	     2544,55	-45,6
     41,9614	     2532,41	-48,8	     2564,58	-49,2
     41,9633	     2542,59	-47,2	     2558,01	-47,9
     41,9653	     2550,79	-47,6	     2566,18	-47,9
     41,9673	     2559,01	-48,8	     2572,18	-49,2
     41,9692	      2559,2	-44,4	     2569,23	-45,4
     41,9712	     2566,16	-46,1	     2592,39	-45,7
     41,9731	     2579,15	-46,4	     2616,49	-46,5
     41,9751	     2567,49	-46,1	     2605,76	-45,3
      41,977	     2583,28	-49,3	     2612,61	-47,5
      41,979	     2576,36	-47,9	     2620,91	-48,8
     41,9809	     2586,54	-45,9	     2623,94	-46,7
     41,9829	     2597,28	-47,3	     2627,55	-46,6
     41,9848	     2590,18	-44,9	     2626,46	-46,0
     41,9868	     2606,48	-44,9	      2623,4	-45,0
     41,9888	     2615,73	-43,9	     2636,58	-47,5
     41,9907	     2617,27	-46,2	     2640,08	-46,0
     41,9927	     2622,11	-44,9	     2651,36	-47,2
     41,9946	     2641,06	-47,3	      2664,1	-48,2
     41,9966	     2643,07	-48,5	     2670,12	-45,8
     41,9985	     2643,53	-45,0	     2668,58	-46,8
     42,0005	     2643,09	-45,9	        2678	-46,9
     42,0024	     2647,59	-44,8	     2682,67	-43,8
     42,0044	     2653,27	-43,9	     2694,13	-44,3
     42,0064	      2659,3	-44,1	     2697,79	-47,1
     42,0083	        2674	-45,5	     2710,26	-45,8
     42,0103	     2678,61	-45,8	     2725,08	-45,7
     42,0122	     2688,22	-47,0	     2724,38	-47,3
     42,0142	     2686,59	-46,3	     2715,15	-43,2
     42,0161	     2695,92	-43,8	     2716,67	-44,7
     42,0181	     2708,03	-44,3	     2744,32	-45,9
       42,02	     2706,19	-43,5	     2749,59	-43,4
      42,022	     2696,77	-44,2	     2759,27	-45,0
     42,0239	     2709,36	-45,9	     2757,49	-44,8
     42,0259	     2713,52	-46,2	     2759,71	-43,7
     42,0279	     2729,04	-45,5	     2765,73	-45,3
     42,0298	     2738,77	-45,8	     2787,31	-46,0
     42,0318	     2747,63	-42,8	     2793,14	-45,8
     42,0337	      2751,9	-43,4	     2793,29	-44,8
     42,0357	     2756,25	-44,5	     2798,43	-44,7
     42,0376	     2766,55	-44,4	     2801,51	-43,4
     42,0396	     2772,48	-43,6	      2806,7	-44,7
     42,0415	     2773,59	-44,7	     2801,81	-44,4
     42,0435	     2785,41	-43,3	     2818,72	-44,6
     42,0455	      2793,5	-44,1	     2827,27	-44,2
     42,0474	     2793,13	-45,3	     2843,55	-44,8
     42,0494	     2791,41	-43,1	     2860,07	-42,9
     42,0513	     2805,12	-42,6	     2857,48	-43,8
     42,0533	     2822,61	-44,1	     2860,67	-44,5
     42,0552	     2822,85	-44,1	     2866,48	-42,7
     42,0572	     2828,27	-42,2	     2863,82	-43,9
     42,0591	     2832,53	-43,0	     2877,29	-43,2
     42,0611	        2839	-44,4	      2879,7	-43,1
      42,063	     2839,16	-42,6	      2896,4	-45,9
      42,065	     2854,69	-45,3	     2903,55	-45,7
      42,067	     2874,06	-43,9	     2911,53	-42,0
     42,0689	     2876,58	-41,2	     2920,02	-44,0
     42,0709	      2880,1	-42,0	     2914,46	-42,2
     42,0728	     2889,06	-42,1	     2924,11	-41,4
     42,0748	     2885,04	-41,4	     2920,98	-41,3
     42,0767	     2907,59	-45,0	     2928,73	-43,3
     42,0787	     2911,74	-43,1	     2943,82	-42,4
     42,0806	     2909,36	-42,5	      2980,1	-43,7
     42,0826	     2925,01	-43,8	     2986,83	-43,6
     42,0846	     2917,19	-45,0	     2972,08	-41,0
     42,0865	     2921,63	-40,9	     2971,92	-41,9
     42,0885	     2942,68	-42,5	     2980,51	-42,0
     42,0904	     2960,32	-43,2	     2990,86	-42,5
     42,0924	     2969,78	-41,2	     3009,44	-42,5
     42,0943	     2977,43	-41,2	      3020,9	-42,2
     42,0963	     2981,27	-41,5	      3012,3	-40,8
     42,0982	      2984,4	-41,2	     3022,09	-42,1
     42,1002	     2968,35	-41,0	     3033,86	-42,9
     42,1021	     2986,78	-43,7	     3051,65	-41,4
     42,1041	      2995,5	-42,1	     3042,35	-42,0
     42,1061	      2999,5	-41,0	     3055,35	-42,8
      42,108	     3003,21	-42,4	     3069,11	-39,6
       42,11	     3011,55	-39,4	     3074,49	-39,8
     42,1119	      3013,1	-39,6	     3090,78	-40,4
     42,1139	     3039,47	-41,4	     3091,53	-40,1
     42,1158	     3057,96	-41,0	     3097,14	-42,5
     42,1178	     3068,04	-41,2	     3102,21	-41,6
     42,1197	     3070,28	-42,1	     3111,23	-39,9
     42,1217	     3080,65	-39,6	     3110,21	-41,0
     42,1237	     3075,38	-39,9	     3124,04	-40,9
     42,1256	     3080,56	-41,0	     3133,56	-39,6
     42,1276	     3082,43	-40,8	     3150,29	-40,1
     42,1295	     3093,26	-40,5	     3164,92	-40,1
     42,1315	     3090,87	-39,6	     3183,72	-38,3
     42,1334	     3097,06	-39,2	     3169,89	-37,8
     42,1354	     3097,73	-38,6	      3170,9	-42,5
     42,1373	     3112,65	-38,6	     3183,04	-40,8
     42,1393	     3139,14	-41,0	     3198,44	-40,5
     42,1413	     3125,34	-40,7	     3204,45	-42,5
     42,1432	     3150,39	-40,3	     3223,05	-41,4
     42,1452	     3167,36	-40,4	     3222,84	-38,5
     42,1471	     3170,28	-37,7	     3226,13	-40,1
     42,1491	     3172,18	-38,1	     3239,49	-39,0
      42,151	      3198,3	-39,3	      3238,8	-37,4
      42,153	     3205,07	-40,1	     3253,54	-40,2
     42,1549	     3202,32	-37,8	     3281,41	-38,5
     42,1569	     3211,39	-40,5	     3280,67	-37,8
     42,1588	     3219,71	-39,8	     3292,35	-38,0
     42,1608	     3222,89	-37,5	     3299,39	-40,3
     42,1628	     3232,13	-40,2	      3295,3	-38,6
     42,1647	     3241,89	-39,7	     3302,34	-38,6
     42,1667	      3255,4	-36,4	     3315,75	-39,9
     42,1686	     3258,56	-37,4	     3330,87	-36,8
     42,1706	     3258,43	-38,1	     3333,75	-36,5
     42,1725	     3268,29	-35,9	     3350,46	-38,4
     42,1745	     3283,19	-37,6	      3362,1	-36,6
     42,1764	        3282	-36,5	     3368,15	-38,8
     42,1784	     3298,88	-36,8	     3373,03	-37,8
     42,1804	     3313,29	-36,9	     3377,91	-36,7
     42,1823	     3314,67	-39,0	     3383,81	-37,2
     42,1843	     3315,92	-37,9	     3403,72	-38,9
     42,1862	     3331,31	-36,9	     3426,98	-36,3
     42,1882	     3343,06	-38,0	      3431,7	-36,7
     42,1901	     3341,99	-35,6	     3421,89	-36,0
     42,1921	     3348,64	-34,9	     3426,18	-37,1
      42,194	     3369,42	-36,3	     3438,83	-34,7
      42,196	     3374,48	-36,5	     3438,92	-34,5
     42,1979	     3394,76	-34,9	      3460,1	-37,3
     42,1999	     3409,46	-34,4	     3474,09	-35,7
     42,2019	     3403,21	-36,2	     3485,87	-36,9
     42,2038	      3421,9	-36,4	      3502,3	-38,1
     42,2058	     3434,41	-34,6	     3506,87	-33,8
     42,2077	     3448,57	-37,7	      3512,6	-35,7
     42,2097	     3451,75	-37,9	     3525,66	-35,5
     42,2116	     3447,05	-34,6	     3535,34	-34,8
     42,2136	     3450,35	-35,1	     3542,58	-34,8
     42,2155	     3453,31	-35,2	     3548,79	-35,7
     42,2175	     3473,63	-34,4	     3568,16	-35,8
     42,2195	     3490,72	-35,1	     3572,47	-32,0
     42,2214	     3488,46	-35,8	     3580,28	-32,9
     42,2234	     3499,76	-34,4	     3591,29	-35,4
     42,2253	     3521,06	-33,1	     3601,43	-34,8
     42,2273	     3523,02	-33,8	     3597,21	-34,6
     42,2292	      3524,4	-34,7	     3623,06	-35,6
     42,2312	     3531,18	-34,3	     3629,85	-33,6
     42,2331	     3563,57	-35,0	     3630,24	-33,7
     42,2351	     3565,05	-33,9	     3643,37	-35,2
      42,237	     3580,22	-32,4	     3658,67	-34,4
      42,239	     3600,01	-33,4	     3678,99	-30,9
      42,241	     3605,45	-33,7	     3684,89	-32,2
     42,2429	     3604,56	-32,7	     3713,91	-32,7
