X-Data [Hz]	Piezo (M - Filtered) [mV]	Phase [Deg]	Piezo (M - Filtered) [mV]	Phase [Deg]	
	002: [07-09-24 14:22]		003: [07-09-24 14:26]	
        40,5	     560,492	-103,7	     621,254	-105,0
     40,5029	     584,641	-104,9	     621,355	-104,8
     40,5059	     607,762	-104,5	     621,081	-105,2
     40,5088	     611,602	-105,0	     623,411	-104,9
     40,5117	     617,399	-104,5	     623,722	-104,7
     40,5147	     619,461	-104,4	     624,834	-105,4
     40,5176	     621,713	-104,8	     626,969	-104,9
     40,5205	     623,075	-104,6	     626,183	-104,7
     40,5235	     627,331	-104,8	     627,656	-104,9
     40,5264	     626,292	-104,7	     628,095	-104,9
     40,5293	     626,752	-104,4	     631,352	-104,6
     40,5323	     629,165	-104,9	     631,979	-104,9
     40,5352	     627,896	-104,5	     632,755	-104,3
     40,5381	     631,268	-104,8	     633,323	-105,1
     40,5411	     630,619	-104,8	     636,602	-105,0
      40,544	     633,419	-104,5	     635,704	-104,8
     40,5469	     633,035	-104,8	       638,2	-104,7
     40,5499	     635,715	-104,6	     637,533	-104,6
     40,5528	      636,77	-104,4	     639,853	-104,6
     40,5557	     636,412	-104,4	     640,735	-104,7
     40,5587	     638,761	-104,7	      641,43	-104,3
     40,5616	     638,702	-104,8	     643,527	-104,8
     40,5645	      641,84	-104,8	     642,865	-104,6
     40,5674	     640,825	-104,6	     645,091	-104,4
     40,5704	     643,861	-104,8	      646,87	-104,6
     40,5733	     643,556	-104,8	     647,273	-104,3
     40,5762	     645,594	-104,5	     647,818	-104,2
     40,5792	     645,788	-104,5	      648,81	-104,5
     40,5821	     647,673	-104,6	      650,46	-104,6
      40,585	     649,424	-104,4	     651,028	-104,3
      40,588	     650,178	-104,6	     654,139	-104,4
     40,5909	     650,316	-104,6	     652,448	-104,1
     40,5938	      653,72	-104,5	     655,991	-104,4
     40,5968	     652,652	-104,7	     658,087	-104,2
     40,5997	     654,787	-104,2	     657,503	-104,0
     40,6026	     656,157	-104,4	     658,233	-104,1
     40,6056	     655,286	-104,7	     659,624	-104,5
     40,6085	     658,743	-104,2	     662,019	-104,0
     40,6114	     659,217	-104,6	     662,766	-104,0
     40,6144	     659,536	-104,5	     663,794	-104,1
     40,6173	     660,398	-104,2	     666,063	-104,3
     40,6202	     664,249	-104,5	     666,649	-104,2
     40,6232	     663,568	-104,5	     667,613	-103,8
     40,6261	     665,281	-104,1	     669,481	-103,9
      40,629	     666,962	-104,2	     668,877	-104,1
      40,632	     667,477	-104,0	     671,619	-103,8
     40,6349	      669,66	-104,2	     671,669	-104,0
     40,6378	     669,144	-104,4	     673,181	-104,2
     40,6408	     671,379	-104,2	     674,079	-104,1
     40,6437	     672,184	-104,3	     676,559	-103,9
     40,6466	     673,064	-104,4	     676,661	-104,0
     40,6496	     673,513	-104,0	     677,968	-104,2
     40,6525	     676,929	-103,8	     679,016	-104,1
     40,6554	     677,426	-104,3	     681,936	-103,7
     40,6584	     678,443	-104,0	      681,31	-103,6
     40,6613	     680,703	-103,9	     684,512	-103,9
     40,6642	     681,215	-104,1	     684,667	-104,1
     40,6672	     681,461	-103,8	     685,467	-103,5
     40,6701	     683,576	-104,0	     688,075	-104,1
      40,673	     683,567	-104,1	     688,393	-104,1
      40,676	     686,098	-103,9	     689,478	-103,7
     40,6789	      686,52	-103,5	     692,357	-103,8
     40,6818	     688,341	-104,0	     690,936	-104,0
     40,6847	     688,898	-103,7	     696,415	-103,6
     40,6877	     691,149	-103,7	     695,401	-103,7
     40,6906	     692,396	-103,9	     696,798	-104,0
     40,6936	     693,742	-103,6	     696,956	-103,5
     40,6965	     695,235	-104,0	     700,128	-103,9
     40,6994	     696,226	-103,8	      700,08	-104,1
     40,7023	     698,055	-103,6	     703,671	-103,8
     40,7053	     698,929	-103,4	     702,856	-103,4
     40,7082	     700,324	-103,5	     705,574	-103,7
     40,7111	      701,79	-103,6	     706,054	-103,5
     40,7141	     702,671	-103,4	     707,687	-103,5
      40,717	       704,1	-103,6	     708,609	-103,7
     40,7199	     706,387	-103,2	     711,318	-103,6
     40,7229	      707,96	-103,7	     711,509	-103,6
     40,7258	     708,632	-103,5	     714,191	-103,8
     40,7287	     709,467	-103,4	     714,522	-103,4
     40,7317	     711,309	-103,3	     716,658	-103,7
     40,7346	     712,103	-103,4	     717,669	-103,5
     40,7375	     713,507	-103,1	     719,111	-103,1
     40,7405	     716,459	-103,4	     720,688	-103,0
     40,7434	     716,864	-103,4	     722,466	-103,4
     40,7463	     718,512	-103,6	     723,509	-103,2
     40,7493	     720,923	-103,2	     724,442	-102,9
     40,7522	       721,2	-103,5	     726,336	-103,2
     40,7551	     722,927	-103,5	     727,465	-102,8
     40,7581	     724,903	-103,2	     729,825	-102,8
      40,761	     725,223	-103,4	     729,944	-103,1
     40,7639	     728,309	-103,2	     732,914	-103,2
     40,7669	     728,564	-103,1	       732,8	-102,9
     40,7698	     729,711	-103,2	     735,912	-103,0
     40,7727	     732,191	-103,2	     736,589	-103,3
     40,7757	     732,987	-103,1	     739,372	-103,0
     40,7786	     734,213	-103,1	     738,391	-103,0
     40,7815	     735,495	-103,4	      740,85	-102,9
     40,7845	     737,108	-102,9	     742,733	-102,9
     40,7874	     738,008	-103,5	     744,706	-103,0
     40,7903	     740,154	-103,1	     745,529	-103,3
     40,7933	     743,956	-102,9	     746,796	-103,0
     40,7962	     741,672	-102,7	     751,269	-103,1
     40,7991	     746,222	-103,1	     749,384	-103,1
     40,8021	     746,634	-102,7	     753,777	-102,9
      40,805	     747,427	-102,8	     753,229	-102,7
     40,8079	     750,548	-103,0	     755,155	-103,1
     40,8109	     750,743	-103,1	     758,462	-102,8
     40,8138	     753,211	-102,7	     758,835	-102,3
     40,8167	     754,982	-102,6	     759,507	-102,6
     40,8196	     755,858	-103,2	     761,215	-102,5
     40,8226	     757,086	-103,0	     761,959	-102,2
     40,8255	      759,87	-102,9	      766,02	-102,5
     40,8284	     760,102	-103,0	     765,309	-102,5
     40,8314	     762,588	-102,8	     769,608	-102,8
     40,8343	     764,279	-102,6	     769,927	-102,4
     40,8372	     765,788	-102,5	     771,179	-102,5
     40,8402	     767,931	-102,8	     774,236	-102,7
     40,8431	     767,229	-102,6	     774,091	-102,4
      40,846	     772,332	-102,7	     776,014	-102,5
      40,849	      772,28	-102,7	     778,352	-102,6
     40,8519	     774,912	-102,6	     780,091	-102,2
     40,8548	     774,583	-102,4	     781,012	-102,4
     40,8578	     776,436	-102,4	     784,684	-102,5
     40,8607	     781,031	-102,7	     784,461	-102,4
     40,8636	     779,738	-102,5	     786,391	-102,4
     40,8666	      781,12	-102,4	     788,196	-102,3
     40,8695	     784,012	-102,3	     789,968	-102,4
     40,8724	     787,467	-102,4	      792,93	-101,9
     40,8754	      788,52	-102,4	     792,867	-101,8
     40,8783	     788,308	-102,6	     796,297	-102,3
     40,8812	      790,95	-102,1	     795,743	-101,6
     40,8842	     793,427	-102,4	     798,576	-101,9
     40,8871	     793,599	-102,4	     802,288	-102,2
       40,89	     794,821	-102,3	     800,885	-102,0
      40,893	     796,952	-102,1	     805,247	-102,0
     40,8959	     799,878	-102,4	     806,556	-102,1
     40,8988	     800,745	-102,2	     807,788	-102,3
     40,9018	     802,427	-102,0	     811,075	-102,1
     40,9047	     805,911	-101,8	      812,14	-101,8
     40,9076	     806,652	-101,9	     814,096	-102,1
     40,9106	     809,201	-102,0	     816,266	-102,0
     40,9135	     811,142	-102,0	     817,986	-101,7
     40,9164	     811,279	-101,9	     817,759	-101,5
     40,9194	     815,926	-102,0	     822,538	-101,8
     40,9223	     817,666	-102,1	     823,197	-101,8
     40,9252	     817,293	-101,9	     824,727	-101,7
     40,9282	     819,203	-101,7	     826,187	-101,5
     40,9311	     822,059	-101,9	     828,381	-101,7
      40,934	     823,759	-102,0	     831,484	-101,6
      40,937	     824,667	-101,6	     833,813	-101,6
     40,9399	     829,854	-101,6	     834,448	-101,8
     40,9428	     828,866	-102,0	     837,538	-101,5
     40,9457	     829,359	-101,7	     838,307	-101,3
     40,9487	     835,121	-101,5	     840,943	-101,4
     40,9516	     834,192	-101,8	      843,14	-101,3
     40,9545	     837,159	-101,6	     846,286	-101,3
     40,9575	     838,501	-101,6	      846,72	-101,1
     40,9604	     839,596	-101,4	     848,666	-101,4
     40,9633	     842,199	-101,2	     852,889	-101,5
     40,9663	     846,288	-101,3	     853,817	-101,2
     40,9692	     846,841	-101,3	     853,947	-101,2
     40,9721	     847,589	-101,3	     859,021	-101,4
     40,9751	     851,702	-101,6	       860,7	-101,0
      40,978	     851,604	-101,0	      860,12	-101,2
     40,9809	     856,454	-101,0	     865,257	-101,1
     40,9839	     857,857	-101,5	     866,616	-100,9
     40,9868	     859,291	-101,4	      866,84	-100,9
     40,9897	      864,09	-101,5	     871,183	-101,2
     40,9927	     862,299	-101,2	     873,467	-100,9
     40,9956	     866,604	-101,6	     873,646	-100,9
     40,9985	      867,72	-101,2	     875,995	-101,3
     41,0015	     869,792	-100,8	     879,677	-100,9
     41,0044	     871,211	-100,8	     880,489	-100,8
     41,0073	     873,758	-100,8	     884,552	-101,3
     41,0103	     876,844	-100,9	      886,49	-101,1
     41,0132	     878,612	-100,8	      888,52	-100,4
     41,0161	     881,255	-100,9	     891,295	-100,5
     41,0191	     882,535	-101,1	     893,673	-100,7
      41,022	     885,932	-101,1	     894,713	-100,6
     41,0249	     888,258	-100,8	     896,147	-100,8
     41,0279	     889,518	-100,9	     900,632	-100,6
     41,0308	     891,351	-100,9	     901,966	-100,5
     41,0337	     894,498	-100,6	     905,519	-100,7
     41,0367	     896,999	-100,6	     906,539	-100,5
     41,0396	     900,422	-100,6	     911,378	-100,2
     41,0425	     900,887	-101,0	     910,584	-100,1
     41,0455	     902,981	-101,0	     914,434	-100,4
     41,0484	     906,513	-100,6	     916,531	-100,0
     41,0513	     907,301	-100,6	     918,785	-100,0
     41,0543	      910,98	-100,5	     920,957	-100,4
     41,0572	     912,797	-100,4	     923,908	-100,4
     41,0601	     915,827	-100,2	     928,883	-100,2
      41,063	      918,25	-100,4	     928,711	-100,0
      41,066	     920,323	-100,3	     932,517	-100,2
     41,0689	     923,825	-100,4	     934,978	-99,9
     41,0718	     924,252	-100,5	     936,216	-100,1
     41,0748	      927,83	-100,1	     938,168	-99,6
     41,0777	     930,437	-100,4	     941,638	-99,9
     41,0806	     932,425	-100,3	     945,002	-100,2
     41,0836	     935,463	-99,9	     946,497	-99,7
     41,0865	     937,868	-99,8	     949,029	-100,0
     41,0894	     941,242	-99,7	     953,303	-99,5
     41,0924	      943,65	-100,0	     956,081	-100,0
     41,0953	     944,466	-100,2	     958,818	-99,7
     41,0982	     949,158	-99,9	     960,147	-99,4
     41,1012	     950,656	-99,7	     964,891	-99,5
     41,1041	     951,359	-99,8	     966,538	-99,5
      41,107	      955,15	-99,7	     967,244	-99,6
       41,11	     959,503	-99,5	     971,167	-99,6
     41,1129	     961,638	-99,6	     973,739	-99,3
     41,1158	     963,669	-99,9	     978,359	-99,6
     41,1188	     965,174	-99,9	     980,617	-99,4
     41,1217	     969,774	-99,8	     984,591	-99,2
     41,1246	     972,094	-99,4	     986,209	-99,0
     41,1276	     974,974	-99,3	     988,875	-99,2
     41,1305	     977,166	-99,2	     992,261	-99,3
     41,1334	      980,71	-99,3	     994,046	-99,4
     41,1364	     983,067	-99,3	     999,852	-99,0
     41,1393	     985,425	-99,3	     1001,78	-98,6
     41,1422	     989,264	-99,4	      1004,6	-99,0
     41,1452	     991,849	-99,6	     1007,52	-98,9
     41,1481	     994,377	-99,2	     1012,38	-99,0
      41,151	     996,351	-98,8	     1013,76	-98,7
      41,154	     999,884	-98,8	     1014,67	-98,7
     41,1569	     1004,99	-99,1	     1019,71	-99,1
     41,1598	     1005,72	-99,2	        1024	-98,9
     41,1628	     1009,29	-99,1	     1027,11	-98,6
     41,1657	     1012,92	-98,9	     1029,83	-98,5
     41,1686	     1014,07	-98,7	     1032,39	-98,3
     41,1716	     1019,73	-98,9	     1035,16	-98,6
     41,1745	      1021,5	-98,7	     1038,32	-98,7
     41,1774	     1025,75	-98,6	     1041,77	-98,5
     41,1804	     1029,41	-98,8	     1045,75	-98,3
     41,1833	     1030,37	-98,9	     1049,48	-98,2
     41,1862	     1032,97	-98,8	     1050,49	-98,3
     41,1891	     1037,98	-98,7	     1054,49	-98,2
     41,1921	     1040,51	-98,3	      1059,7	-98,3
      41,195	     1044,42	-98,1	     1064,27	-98,0
     41,1979	     1046,81	-98,3	     1067,23	-98,2
     41,2009	     1049,71	-98,5	     1069,96	-98,1
     41,2038	     1052,74	-98,5	     1071,81	-97,9
     41,2067	      1056,2	-98,3	     1077,95	-97,4
     41,2097	     1058,89	-97,9	     1080,05	-97,6
     41,2126	     1064,01	-98,2	     1085,63	-97,8
     41,2155	      1068,1	-98,1	     1087,27	-97,8
     41,2185	     1072,12	-98,3	     1090,95	-97,9
     41,2214	     1073,85	-97,8	     1095,81	-97,6
     41,2243	     1079,71	-98,0	     1099,37	-97,3
     41,2273	     1082,81	-98,2	     1104,59	-97,3
     41,2302	     1082,97	-97,9	     1107,99	-97,5
     41,2331	     1088,23	-97,7	     1109,15	-97,1
     41,2361	     1092,58	-97,3	     1113,35	-97,2
      41,239	     1095,71	-97,5	     1118,17	-97,3
     41,2419	     1098,39	-97,8	     1121,98	-97,1
     41,2449	     1103,09	-97,7	     1126,15	-97,1
     41,2478	     1107,01	-97,6	     1130,42	-96,6
     41,2507	     1109,45	-97,3	     1133,93	-96,8
     41,2537	      1113,4	-97,0	     1139,04	-96,7
     41,2566	     1118,06	-97,2	     1141,93	-96,5
     41,2595	      1122,5	-97,5	     1145,67	-97,1
     41,2625	     1127,47	-97,1	     1152,36	-96,5
     41,2654	     1129,88	-97,1	     1155,58	-96,4
     41,2683	     1133,15	-96,9	     1159,52	-96,6
     41,2713	     1137,27	-96,8	      1162,8	-96,7
     41,2742	     1142,09	-97,1	     1169,42	-96,8
     41,2771	     1145,33	-96,7	     1173,57	-96,4
     41,2801	     1149,32	-96,8	     1177,51	-96,0
      41,283	     1153,22	-96,6	     1181,28	-96,0
     41,2859	     1157,02	-96,3	      1185,3	-96,0
     41,2889	     1162,21	-96,5	     1190,66	-96,2
     41,2918	     1165,33	-96,7	     1196,87	-96,2
     41,2947	     1171,58	-96,3	     1201,86	-96,0
     41,2977	     1174,35	-96,3	     1204,51	-95,4
     41,3006	     1178,41	-96,1	     1207,49	-95,4
     41,3035	      1183,6	-95,9	     1214,87	-95,7
     41,3064	      1187,3	-96,2	     1220,93	-95,8
     41,3094	     1191,67	-96,1	     1222,62	-95,8
     41,3123	     1197,43	-96,0	     1228,22	-95,5
     41,3153	     1201,39	-95,9	     1233,14	-95,1
     41,3182	     1204,89	-95,7	     1239,62	-95,1
     41,3211	     1211,28	-96,0	     1244,99	-95,3
      41,324	     1214,24	-95,9	        1250	-95,3
      41,327	     1219,39	-95,5	     1254,19	-95,1
     41,3299	     1226,16	-95,6	     1261,67	-94,9
     41,3328	      1230,8	-95,8	     1265,65	-94,4
     41,3358	     1235,61	-95,6	      1269,8	-94,6
     41,3387	     1240,63	-95,3	     1276,99	-94,8
     41,3416	     1245,43	-95,4	     1282,95	-94,8
     41,3446	     1248,05	-95,4	     1289,91	-94,6
     41,3475	     1253,87	-95,2	     1294,67	-94,0
     41,3504	     1263,52	-95,3	     1299,04	-94,1
     41,3534	     1265,62	-95,1	     1306,28	-94,2
     41,3563	     1269,63	-94,8	     1310,93	-94,3
     41,3592	     1275,88	-95,0	     1318,72	-94,3
     41,3622	      1283,2	-94,4	     1325,62	-94,0
     41,3651	     1288,65	-94,7	     1329,69	-93,7
      41,368	     1293,52	-94,7	     1336,17	-93,4
      41,371	     1298,54	-94,4	     1341,58	-93,6
     41,3739	      1304,5	-94,3	     1348,25	-93,8
     41,3768	     1310,76	-94,2	     1357,53	-93,6
     41,3798	     1316,45	-94,2	     1363,82	-93,2
     41,3827	     1321,11	-94,0	     1369,58	-92,7
     41,3856	        1328	-93,6	     1375,31	-92,9
     41,3886	     1335,19	-93,7	     1383,92	-93,1
     41,3915	     1340,57	-93,9	     1391,38	-92,8
     41,3944	     1344,84	-93,8	     1397,22	-92,7
     41,3974	     1350,14	-93,6	     1405,52	-92,4
     41,4003	     1360,43	-93,6	     1413,02	-92,1
     41,4032	     1365,27	-93,2	     1420,52	-92,2
     41,4062	      1372,2	-93,3	     1429,51	-92,0
     41,4091	     1376,92	-93,6	     1436,05	-92,0
      41,412	     1383,07	-93,4	     1443,36	-91,9
      41,415	     1391,66	-93,0	     1455,27	-91,6
     41,4179	     1398,58	-92,5	      1463,8	-91,6
     41,4208	     1405,09	-92,5	     1473,39	-91,3
     41,4238	     1410,52	-92,7	      1480,7	-91,1
     41,4267	     1420,26	-92,8	     1492,68	-90,8
     41,4296	     1426,51	-92,4	     1502,93	-91,0
     41,4326	     1433,93	-92,2	     1512,42	-91,1
     41,4355	     1441,01	-91,9	     1522,99	-90,7
     41,4384	     1447,86	-92,0	     1533,28	-90,3
     41,4413	     1456,56	-92,3	     1545,46	-89,9
     41,4443	     1463,41	-91,8	     1564,21	-90,1
     41,4472	     1472,21	-91,6	     1598,41	-90,3
     41,4501	     1480,98	-91,5	     1679,11	-90,7
     41,4531	     1489,52	-91,0	     1795,52	-89,8
      41,456	     1497,68	-91,1	     1957,09	-88,3
     41,4589	     1504,81	-90,9	     2154,35	-85,7
     41,4619	     1513,53	-90,6	     2372,59	-81,9
     41,4648	     1523,99	-90,6	     2613,48	-77,0
     41,4677	     1532,99	-90,8	     2793,22	-72,5
     41,4707	     1541,78	-90,7	     2947,71	-68,5
     41,4736	     1550,47	-90,0	     3099,94	-64,1
     41,4765	     1561,02	-89,9	      3210,4	-60,9
     41,4795	     1569,39	-90,1	     3303,21	-57,9
     41,4824	        1580	-90,1	     3383,07	-54,8
     41,4853	     1590,85	-89,8	     3449,26	-52,5
     41,4883	     1598,11	-89,4	     3516,17	-50,2
     41,4912	     1609,06	-88,9	      3561,2	-48,4
     41,4941	     1621,23	-88,8	     3602,98	-46,4
     41,4971	     1633,17	-88,8	     3640,38	-44,8
        41,5	     1645,68	-88,4	     3679,15	-43,0
     41,5029	     1656,86	-88,1	     3704,29	-41,7
     41,5059	     1670,79	-88,2	     3727,43	-40,3
     41,5088	     1681,24	-88,2	     3747,69	-39,0
     41,5117	      1693,1	-87,9	     3764,96	-38,2
     41,5147	     1705,57	-87,6	     3784,99	-37,3
     41,5176	      1719,4	-87,1	     3798,75	-36,5
     41,5205	     1732,39	-87,3	     3810,58	-35,4
     41,5235	     1745,55	-87,0	     3824,23	-33,9
     41,5264	     1759,67	-86,6	     3832,73	-33,5
     41,5293	     1775,33	-86,2	     3843,15	-32,8
     41,5323	     1788,74	-86,3	     3851,43	-31,9
     41,5352	      1806,6	-85,8	     3860,04	-31,2
     41,5381	     1822,33	-85,4	     3867,02	-30,5
     41,5411	     1837,68	-84,9	     3873,68	-30,2
      41,544	     1854,56	-84,5	      3877,5	-29,4
     41,5469	      1872,6	-84,5	     3883,07	-28,8
     41,5499	     1891,83	-83,8	      3887,4	-27,6
     41,5528	     1918,05	-83,6	     3891,28	-27,3
     41,5557	     1936,04	-83,1	     3894,86	-26,8
     41,5587	     1957,82	-83,0	      3897,3	-26,1
     41,5616	        1977	-82,6	     3900,67	-25,8
     41,5645	     1994,88	-82,1	     3903,82	-25,5
     41,5674	     2016,01	-81,6	     3906,73	-24,8
     41,5704	      2038,1	-81,1	     3907,61	-24,1
     41,5733	     2064,34	-80,8	      3908,8	-23,5
     41,5762	     2090,59	-80,1	      3909,8	-23,2
     41,5792	     2122,26	-79,5	     3909,88	-22,9
     41,5821	     2149,42	-78,9	     3910,29	-22,1
      41,585	      2179,4	-78,3	     3911,61	-21,8
      41,588	     2212,56	-77,7	     3914,64	-21,6
     41,5909	     2249,94	-76,4	     3913,82	-21,4
     41,5938	     2289,73	-75,7	     3911,49	-20,9
