X-Data [Hz]	Piezo (M - Filtered) [mV]	Phase [Deg]	Piezo (M - Filtered) [mV]	Phase [Deg]	
	002: [07-09-24 15:39]		003: [07-09-24 15:42]	
        41,5	     14,6748	-102,1	     15,1062	-107,1
      41,502	      14,758	-106,6	     15,3501	-104,8
     41,5039	     14,7718	-104,9	     15,3856	-105,0
     41,5059	     15,0385	-105,4	      15,373	-103,9
     41,5078	     15,2349	-104,1	     15,3978	-105,8
     41,5098	     15,2777	-106,7	      15,435	-104,8
     41,5117	     15,1902	-106,2	     15,5218	-105,2
     41,5137	     15,2927	-104,0	     15,4858	-106,1
     41,5156	     15,4167	-104,9	     15,5354	-103,9
     41,5176	      15,501	-103,4	     15,6218	-104,7
     41,5196	      15,404	-107,2	      15,607	-103,8
     41,5215	      15,462	-107,1	     15,6599	-106,6
     41,5235	     15,5328	-105,5	     15,6966	-107,4
     41,5254	     15,6048	-105,9	     15,6955	-106,3
     41,5274	     15,7153	-102,3	     15,7429	-106,6
     41,5293	     15,7108	-105,4	     15,8104	-103,9
     41,5313	     15,5114	-104,6	     15,8036	-105,4
     41,5332	     15,4875	-105,5	     15,8125	-104,6
     41,5352	     15,6046	-104,3	     15,7377	-104,3
     41,5371	     15,7667	-103,2	     15,7947	-104,8
     41,5391	     15,7757	-105,4	     15,8753	-103,7
     41,5411	     15,7532	-103,8	     15,9847	-105,3
      41,543	     15,7465	-105,8	     15,9032	-102,8
      41,545	       15,83	-105,9	     15,7696	-107,4
     41,5469	      15,895	-104,8	     15,8654	-107,8
     41,5489	      15,984	-105,8	       15,97	-103,8
     41,5508	     15,9806	-104,2	     16,0596	-104,2
     41,5528	     15,8722	-105,4	     16,1602	-102,1
     41,5547	      15,844	-105,8	     16,0685	-103,6
     41,5567	     16,1034	-105,8	     16,0696	-104,5
     41,5587	     16,0807	-107,0	     16,2286	-105,0
     41,5606	     16,2034	-103,4	     16,3837	-103,8
     41,5626	     16,1001	-104,8	     16,1986	-101,6
     41,5645	     16,0946	-103,5	     16,1787	-105,4
     41,5665	     16,0843	-105,7	     16,2277	-105,4
     41,5684	     16,1351	-106,0	     16,2233	-103,9
     41,5704	     16,2032	-103,4	     16,2505	-106,2
     41,5723	     16,2082	-104,6	     16,3211	-104,4
     41,5743	      16,111	-102,4	     16,4433	-105,7
     41,5762	     16,1805	-102,1	     16,5163	-104,2
     41,5782	     16,3361	-106,7	     16,5439	-104,9
     41,5802	     16,4294	-104,0	     16,5503	-105,7
     41,5821	     16,4564	-104,6	     16,5385	-103,0
     41,5841	     16,3047	-106,2	     16,5067	-103,5
      41,586	     16,4468	-104,5	     16,4727	-103,3
      41,588	     16,4449	-105,8	     16,6666	-102,8
     41,5899	      16,544	-103,7	     16,8138	-105,9
     41,5919	     16,5603	-105,7	     16,7956	-104,4
     41,5938	     16,4558	-103,1	     16,6542	-104,2
     41,5958	     16,5416	-102,3	      16,787	-104,2
     41,5978	     16,6349	-104,2	     16,8825	-104,7
     41,5997	     16,6407	-102,5	     16,8435	-104,5
     41,6017	     16,7765	-105,8	     16,8305	-104,0
     41,6036	     16,7799	-105,1	     16,8839	-106,3
     41,6056	     16,7668	-104,4	     16,9564	-106,3
     41,6075	     16,7128	-101,9	     16,9807	-103,8
     41,6095	     16,7237	-102,3	     17,0127	-103,8
     41,6114	     16,9202	-103,7	     17,0179	-102,3
     41,6134	     16,8491	-102,8	      17,153	-103,3
     41,6153	     16,8739	-102,0	      16,994	-102,8
     41,6173	     17,0137	-102,3	     17,0102	-103,8
     41,6193	     17,0248	-103,1	     17,2017	-103,8
     41,6212	     17,0485	-104,6	      17,353	-101,5
     41,6232	     17,0144	-104,4	     17,3512	-104,6
     41,6251	     17,0992	-104,3	     17,3092	-104,2
     41,6271	     17,1076	-105,3	     17,2889	-105,1
      41,629	     17,1528	-102,1	     17,3595	-105,3
      41,631	     17,1668	-103,4	     17,3613	-101,7
     41,6329	     17,1376	-102,6	     17,3151	-102,2
     41,6349	     17,1904	-103,9	     17,3048	-103,9
     41,6369	     17,2349	-105,0	     17,4651	-102,7
     41,6388	     17,1863	-102,8	     17,5175	-104,0
     41,6408	     17,3879	-104,2	     17,5865	-102,9
     41,6427	     17,3629	-104,3	     17,5679	-102,4
     41,6447	     17,4348	-103,8	     17,6381	-102,7
     41,6466	     17,4028	-104,5	     17,7007	-101,6
     41,6486	     17,3775	-103,7	     17,7265	-104,4
     41,6505	     17,5577	-103,5	     17,7562	-103,9
     41,6525	     17,7039	-101,2	     17,7316	-104,8
     41,6544	     17,7211	-102,1	     17,7849	-104,8
     41,6564	     17,4904	-104,4	     17,7269	-102,3
     41,6584	     17,4362	-101,5	     17,9367	-102,7
     41,6603	     17,6099	-100,7	     17,9662	-101,9
     41,6623	     17,8157	-103,8	     17,8354	-102,1
     41,6642	     17,7611	-102,7	     17,9279	-104,5
     41,6662	     17,8214	-102,9	     18,0291	-102,2
     41,6681	     17,7448	-103,4	     17,9928	-104,7
     41,6701	     17,8763	-102,4	      18,022	-102,9
      41,672	     17,9767	-102,8	     18,2002	-104,3
      41,674	     18,0974	-102,5	     18,2699	-104,1
      41,676	     18,1215	-104,2	     18,3477	-103,0
     41,6779	     17,9833	-102,4	       18,28	-103,1
     41,6799	     18,0132	-101,8	      18,259	-104,4
     41,6818	     17,9812	-102,6	     18,3761	-101,0
     41,6838	     18,0198	-101,5	     18,3548	-102,4
     41,6857	     18,2553	-104,0	     18,4239	-102,0
     41,6877	     18,2909	-103,6	     18,4904	-101,4
     41,6896	     18,4129	-101,9	     18,4138	-104,0
     41,6916	     18,4185	-103,7	     18,5222	-101,7
     41,6936	     18,1877	-101,6	     18,6897	-102,7
     41,6955	     18,1388	-100,7	     18,6348	-102,1
     41,6975	     18,3941	-102,9	     18,5539	-101,6
     41,6994	        18,7	-101,5	     18,6471	-103,0
     41,7014	     18,5633	-105,2	     18,7529	-100,9
     41,7033	     18,5835	-103,7	     18,6985	-102,1
     41,7053	     18,6074	-102,3	      18,766	-101,6
     41,7072	     18,6774	-102,2	     18,8084	-100,9
     41,7092	     18,6161	-101,0	     18,8171	-102,0
     41,7111	     18,6523	-102,3	     18,9631	-101,2
     41,7131	     18,7971	-102,6	     19,0346	-101,1
     41,7151	     18,8262	-101,9	     19,2424	-103,0
      41,717	     18,8507	-102,4	     19,1007	-102,9
      41,719	     18,8403	-103,5	     19,1181	-102,5
     41,7209	     18,8794	-101,9	     19,0664	-104,4
     41,7229	      18,953	-101,3	     19,2679	-102,0
     41,7248	     19,0347	-100,3	     19,3879	-101,0
     41,7268	     19,0168	-101,7	     19,3985	-101,8
     41,7287	     19,0288	-102,5	     19,3067	-101,5
     41,7307	     19,1493	-101,8	      19,223	-103,2
     41,7327	     19,2511	-102,2	     19,3014	-100,8
     41,7346	     19,2545	-101,6	     19,3334	-102,5
     41,7366	     19,2115	-102,3	     19,4923	-102,8
     41,7385	     19,3177	-103,8	     19,5544	-101,7
     41,7405	     19,4612	-101,5	     19,6623	-102,3
     41,7424	      19,476	-101,9	     19,5523	-101,7
     41,7444	     19,3907	-100,7	     19,6581	-101,8
     41,7463	     19,3354	-100,2	     19,6663	-100,9
     41,7483	     19,4604	-102,1	     19,7413	-100,6
     41,7502	     19,5249	-101,5	     19,8383	-100,1
     41,7522	     19,7604	-102,6	     19,9147	-101,0
     41,7542	     19,6556	-104,1	     19,8521	-99,6
     41,7561	     19,7717	-100,3	     19,9784	-102,8
     41,7581	     19,7084	-101,4	     20,0893	-101,6
       41,76	     19,6101	-100,2	     20,1351	-102,1
      41,762	     19,7558	-98,7	     20,1352	-103,6
     41,7639	     20,0746	-102,3	     20,0588	-97,8
     41,7659	     20,0839	-102,1	     19,9953	-99,4
     41,7678	     20,1032	-100,9	     20,2004	-101,2
     41,7698	     20,0504	-102,4	     20,2968	-100,0
     41,7718	     20,0106	-100,7	     20,3644	-102,8
     41,7737	     20,0375	-100,6	     20,3626	-101,9
     41,7757	     20,1003	-101,4	     20,3452	-100,6
     41,7776	     20,2143	-100,9	     20,4362	-101,6
     41,7796	     20,3034	-101,2	     20,4312	-98,9
     41,7815	     20,3794	-100,3	     20,5126	-100,4
     41,7835	     20,3401	-100,6	     20,5919	-102,7
     41,7854	     20,3721	-101,2	     20,7321	-100,6
     41,7874	     20,3236	-99,0	     20,7213	-102,3
     41,7893	     20,4564	-101,0	     20,9364	-103,0
     41,7913	     20,5281	-101,8	      20,855	-99,3
     41,7933	     20,5869	-100,1	     20,8056	-100,1
     41,7952	     20,6034	-102,9	     20,8753	-99,7
     41,7972	      20,566	-102,3	     20,8838	-100,0
     41,7991	      20,582	-99,2	     21,0217	-102,1
     41,8011	     20,7474	-99,9	     21,0823	-100,3
      41,803	     20,8271	-99,0	     21,1901	-101,8
      41,805	     21,0105	-100,8	     21,2425	-101,3
     41,8069	     20,9574	-102,0	     21,2492	-99,1
     41,8089	     20,9008	-99,3	     21,3045	-101,7
     41,8109	     20,9572	-101,2	     21,3759	-99,9
     41,8128	     20,8676	-100,8	     21,3984	-99,9
     41,8148	     21,0385	-98,7	     21,3763	-100,9
     41,8167	     21,2444	-99,8	     21,5108	-98,5
     41,8187	     21,1595	-99,8	     21,5017	-100,0
     41,8206	     21,1895	-99,8	     21,6218	-100,8
     41,8226	     21,4249	-100,8	     21,7802	-98,6
     41,8245	     21,4632	-99,5	     21,8901	-101,0
     41,8265	     21,5023	-100,4	     21,8294	-100,7
     41,8284	     21,5208	-99,0	     21,8858	-100,1
     41,8304	     21,5557	-98,4	     21,9539	-100,8
     41,8324	     21,5701	-101,0	     21,9316	-99,8
     41,8343	     21,4804	-101,0	     21,9636	-99,1
     41,8363	     21,6221	-100,2	     22,2407	-98,7
     41,8382	     21,7933	-100,2	     22,2004	-98,1
     41,8402	     22,0095	-98,8	     22,2209	-99,9
     41,8421	     22,0917	-99,0	     22,1881	-100,0
     41,8441	      22,013	-101,3	     22,2027	-99,6
      41,846	     21,8632	-98,2	     22,4507	-101,1
      41,848	     21,8266	-97,9	     22,6085	-99,9
       41,85	     22,0101	-99,9	     22,6716	-97,9
     41,8519	     22,2844	-98,9	     22,7294	-99,4
     41,8539	     22,3851	-100,3	      22,727	-99,2
     41,8558	     22,3835	-99,1	     22,7187	-98,0
     41,8578	      22,408	-97,9	     22,7144	-100,5
     41,8597	     22,4106	-99,3	     22,7574	-98,7
     41,8617	     22,4787	-99,1	     22,8309	-99,9
     41,8636	     22,5343	-98,4	     22,9296	-99,7
     41,8656	     22,6243	-99,2	      22,937	-97,1
     41,8675	     22,5607	-99,0	     22,9459	-97,8
     41,8695	     22,7779	-98,2	     23,0238	-99,7
     41,8715	     22,8836	-99,1	     23,1357	-97,1
     41,8734	     22,8298	-99,1	     23,3005	-99,9
     41,8754	      22,868	-100,1	     23,4127	-99,3
     41,8773	     22,9269	-99,8	     23,3745	-98,0
     41,8793	     22,8886	-97,9	     23,3907	-99,2
     41,8812	     22,9412	-98,7	     23,4578	-96,7
     41,8832	     23,1784	-99,4	     23,5118	-97,7
     41,8851	     23,1677	-98,4	     23,6908	-98,8
     41,8871	     23,2852	-99,3	     23,6563	-97,4
     41,8891	     23,2675	-99,3	     23,6707	-98,5
      41,891	     23,3873	-97,6	     23,7303	-99,0
      41,893	     23,5354	-96,5	     23,8865	-97,8
     41,8949	     23,5669	-96,3	       23,93	-97,6
     41,8969	     23,6333	-95,6	     23,9893	-98,1
     41,8988	     23,7275	-100,5	     23,9979	-96,7
     41,9008	     23,7692	-98,9	     24,0494	-98,0
     41,9027	     23,8816	-98,9	     24,2815	-97,2
     41,9047	       23,99	-100,0	     24,2736	-97,1
     41,9066	     23,9024	-96,1	     24,2581	-97,9
     41,9086	     23,9372	-97,0	     24,4088	-98,2
     41,9106	     23,8858	-97,7	     24,4914	-97,8
     41,9125	     24,0186	-95,8	     24,5945	-98,3
     41,9145	     24,2214	-99,1	     24,6785	-99,4
     41,9164	     24,2574	-99,4	     24,8967	-96,3
     41,9184	     24,2841	-97,8	     24,9607	-96,0
     41,9203	     24,3952	-97,4	     24,8984	-95,5
     41,9223	     24,3806	-96,6	     24,9776	-95,8
     41,9242	     24,4011	-94,9	     25,0046	-97,4
     41,9262	     24,5869	-97,6	     25,1937	-97,0
     41,9282	     24,5539	-95,8	     25,2106	-96,4
     41,9301	     24,7318	-98,7	     25,2465	-98,0
     41,9321	     24,8439	-98,4	     25,2247	-97,9
      41,934	     24,7926	-97,4	      25,266	-96,1
      41,936	     24,9057	-96,3	      25,389	-96,5
     41,9379	       25,09	-96,5	     25,5484	-94,4
     41,9399	     25,1332	-96,5	     25,7324	-98,3
     41,9418	     25,2295	-97,7	     25,8552	-97,6
     41,9438	     25,1638	-97,3	     25,8085	-96,0
     41,9457	     25,1522	-95,9	     25,9638	-96,2
     41,9477	     25,2876	-97,1	     26,0568	-97,0
     41,9497	     25,3012	-98,0	     26,1444	-96,6
     41,9516	      25,614	-95,5	     26,1842	-96,6
     41,9536	     25,7055	-95,5	     26,2849	-96,7
     41,9555	     25,8611	-96,8	     26,3497	-93,9
     41,9575	     25,7066	-95,0	      26,355	-95,1
     41,9594	      25,771	-95,2	     26,4695	-97,1
     41,9614	     25,7802	-95,7	     26,6109	-94,8
     41,9633	     25,9121	-93,4	     26,5937	-97,6
     41,9653	     26,1259	-96,6	     26,8244	-97,1
     41,9673	     26,1187	-97,2	     26,8793	-93,8
     41,9692	     26,2384	-94,0	     26,8197	-94,1
     41,9712	     26,3521	-96,0	     26,9145	-95,0
     41,9731	     26,4576	-97,1	     27,0506	-94,4
     41,9751	     26,5366	-94,1	      27,198	-95,4
      41,977	       26,77	-94,0	     27,2959	-96,0
      41,979	      26,791	-94,7	      27,454	-94,2
     41,9809	     26,9244	-93,1	     27,6079	-94,6
     41,9829	     26,9841	-96,0	     27,6392	-95,4
     41,9848	     27,0997	-95,7	     27,6119	-94,3
     41,9868	      27,111	-94,9	     27,6769	-95,4
     41,9888	     27,2144	-95,8	     27,7515	-95,0
     41,9907	     27,3015	-97,3	     27,7957	-93,1
     41,9927	     27,4254	-92,8	     27,9745	-93,5
     41,9946	     27,4975	-94,8	     28,1236	-93,9
     41,9966	     27,4394	-93,4	     28,1579	-93,8
     41,9985	     27,5267	-92,2	       28,26	-93,4
     42,0005	     27,6019	-95,3	     28,3743	-95,8
     42,0024	     27,6372	-95,2	     28,5008	-94,3
     42,0044	      27,761	-93,9	     28,6623	-94,6
     42,0064	     27,9263	-95,7	      28,719	-95,5
     42,0083	     28,1484	-92,7	     28,6904	-91,7
     42,0103	     28,2759	-93,0	     28,7278	-93,2
     42,0122	     28,2975	-94,0	     28,7944	-94,5
     42,0142	      28,279	-93,3	     28,9599	-92,9
     42,0161	      28,328	-93,1	     29,1191	-92,5
     42,0181	     28,4884	-94,0	     29,1433	-94,0
       42,02	     28,4862	-93,8	     29,3557	-92,6
      42,022	      28,616	-93,6	     29,5308	-92,6
     42,0239	     28,6986	-94,0	     29,5561	-95,1
     42,0259	     28,6965	-94,0	     29,7445	-93,2
     42,0279	     28,7923	-92,7	     29,8057	-93,2
     42,0298	     28,9209	-93,7	     29,9044	-94,0
     42,0318	     29,1146	-94,2	     30,0301	-90,6
     42,0337	     29,2164	-90,7	     30,1305	-90,5
     42,0357	     29,4116	-90,8	     30,3172	-92,4
     42,0376	       29,47	-93,1	     30,4286	-91,1
     42,0396	     29,5821	-92,2	     30,5812	-92,9
     42,0415	     29,5864	-93,1	     30,5551	-93,4
     42,0435	     29,5335	-93,1	     30,7172	-91,1
     42,0455	     29,6909	-91,9	     30,8556	-91,5
     42,0474	     29,7896	-92,0	     30,8491	-92,2
     42,0494	     29,9217	-92,0	     30,9931	-90,4
     42,0513	     30,1062	-91,0	     31,0887	-91,8
     42,0533	     30,3686	-91,5	     31,2447	-92,3
     42,0552	     30,4429	-93,0	     31,4164	-91,7
     42,0572	     30,6205	-90,0	     31,6451	-89,9
     42,0591	     30,6816	-89,4	     31,7527	-90,3
     42,0611	     30,8489	-90,9	     31,8481	-91,3
      42,063	     30,8754	-90,9	     31,8814	-90,1
      42,065	     31,0085	-93,1	     31,9977	-92,2
      42,067	     30,9782	-92,9	     32,0901	-92,2
     42,0689	     30,9505	-91,3	     32,1519	-89,9
     42,0709	     31,0462	-91,4	     32,3214	-90,2
     42,0728	     31,3742	-92,4	     32,4499	-89,3
     42,0748	     31,4786	-88,6	     32,5657	-89,5
     42,0767	     31,5143	-89,6	     32,7045	-88,7
     42,0787	     31,6947	-89,1	     32,9341	-89,0
     42,0806	     31,8351	-89,8	     33,0458	-90,0
     42,0826	      32,043	-91,1	     33,2579	-90,9
     42,0846	     32,1246	-90,4	     33,4143	-90,8
     42,0865	     32,2074	-88,3	     33,5147	-88,7
     42,0885	     32,2972	-90,7	      33,586	-88,3
     42,0904	     32,4518	-91,4	     33,7378	-90,2
     42,0924	     32,5617	-88,7	     33,7176	-90,0
     42,0943	     32,7085	-88,9	     33,8893	-87,7
     42,0963	     32,9281	-89,8	     34,0522	-89,1
     42,0982	     33,0683	-89,2	      34,241	-86,9
     42,1002	     33,0825	-87,6	      34,365	-87,5
     42,1021	     33,2103	-90,0	     34,5727	-88,6
     42,1041	     33,3198	-88,1	     34,7397	-88,8
     42,1061	     33,3375	-87,9	     34,8446	-87,8
      42,108	     33,6565	-89,8	     34,9196	-88,9
       42,11	      33,656	-90,1	     35,1441	-88,7
     42,1119	     33,7468	-86,9	     35,1921	-87,1
     42,1139	     33,8867	-89,8	      35,261	-89,2
     42,1158	     33,9849	-89,3	     35,3644	-89,5
     42,1178	     34,0625	-85,9	     35,4921	-86,0
     42,1197	      34,351	-86,1	     35,6427	-87,9
     42,1217	     34,4839	-87,1	     35,9406	-86,6
     42,1237	     34,6043	-85,8	     36,1417	-86,1
     42,1256	     34,7411	-86,9	     36,3009	-86,8
     42,1276	     34,8873	-86,5	     36,4126	-87,3
     42,1295	     34,9684	-86,6	     36,7684	-86,0
     42,1315	     35,0519	-86,6	     36,8021	-85,4
     42,1334	     35,2914	-88,3	     36,9266	-85,4
     42,1354	     35,3436	-88,0	     37,1601	-86,9
     42,1373	     35,5746	-85,9	       37,33	-86,7
     42,1393	     35,7225	-87,5	     37,5296	-87,7
     42,1413	     35,9526	-85,2	      37,736	-86,8
     42,1432	     36,1224	-84,0	     37,8858	-83,8
     42,1452	     36,2886	-86,8	     37,9694	-85,4
     42,1471	      36,382	-86,2	      38,246	-84,7
     42,1491	     36,5197	-84,3	     38,5085	-83,1
      42,151	     36,5106	-85,1	     38,6502	-84,5
      42,153	     36,6785	-85,5	      38,747	-83,6
     42,1549	     36,9879	-84,2	     38,9356	-83,2
     42,1569	     37,1411	-85,8	     39,0242	-82,8
     42,1588	     37,2696	-86,4	     39,2656	-84,8
     42,1608	     37,4967	-83,6	     39,3974	-84,6
     42,1628	     37,6614	-83,9	     39,5899	-83,8
     42,1647	     37,9307	-84,6	     39,6924	-84,4
     42,1667	     38,0267	-85,1	     39,7777	-84,9
     42,1686	     38,1754	-82,7	     39,9456	-82,2
     42,1706	      38,251	-83,1	     40,2138	-82,5
     42,1725	     38,2875	-82,7	     40,4373	-83,3
     42,1745	     38,4178	-82,0	     40,7378	-83,0
     42,1764	     38,6777	-85,3	     40,9139	-81,2
     42,1784	     38,7832	-83,8	     41,2025	-82,7
     42,1804	     38,9552	-82,3	     41,3194	-81,5
     42,1823	     39,1947	-83,1	     41,5794	-79,8
     42,1843	     39,3289	-82,8	     41,8037	-81,0
     42,1862	     39,5832	-82,1	     42,0841	-81,8
     42,1882	     39,8581	-82,0	     42,3064	-80,7
     42,1901	     39,9796	-83,0	     42,4007	-82,2
     42,1921	     40,1021	-79,5	      42,521	-82,1
      42,194	     40,2451	-80,2	     42,7965	-79,7
      42,196	     40,5644	-82,3	     42,8892	-80,0
     42,1979	     40,7658	-81,0	     43,1659	-80,5
     42,1999	     40,9031	-80,6	     43,4044	-79,8
     42,2019	     41,1846	-80,8	      43,626	-79,3
     42,2038	     41,2572	-81,1	     43,8552	-79,5
     42,2058	     41,5211	-79,8	      44,186	-77,3
     42,2077	     41,6226	-79,4	     44,3729	-77,2
     42,2097	     41,8465	-81,9	     44,7018	-77,0
     42,2116	     42,0422	-80,5	     44,9275	-78,9
     42,2136	     42,2937	-79,4	     45,2483	-77,8
     42,2155	     42,4489	-80,7	     45,3798	-77,8
     42,2175	     42,6686	-78,2	     45,5052	-78,3
     42,2195	     42,8767	-78,2	      45,856	-76,7
     42,2214	     43,0345	-77,9	     46,0226	-76,6
     42,2234	     43,2024	-78,5	     46,0975	-78,4
     42,2253	     43,3197	-77,5	      46,423	-79,2
     42,2273	      43,533	-76,8	     46,7379	-76,4
     42,2292	     43,7197	-78,3	     46,9336	-76,9
     42,2312	     43,8281	-77,4	      47,264	-77,1
