X-Data [Hz]	Piezo (M - Filtered) [mV]	Phase [Deg]	Piezo (M - Filtered) [mV]	Phase [Deg]	
	002: [07-09-24 18:23]		003: [07-09-24 18:26]	
        41,5	     2907,19	-69,8	     3180,56	-70,9
      41,502	     2967,07	-71,2	     3192,01	-71,7
     41,5039	     3012,74	-69,8	     3191,94	-71,5
     41,5059	     3101,02	-71,5	     3197,27	-71,6
     41,5078	     3142,89	-70,8	     3207,06	-70,7
     41,5098	     3174,85	-71,6	     3212,12	-72,2
     41,5117	     3179,93	-71,5	     3223,21	-71,4
     41,5137	     3196,32	-70,9	     3216,82	-71,7
     41,5156	     3206,46	-71,5	     3226,55	-72,1
     41,5176	     3213,05	-71,0	     3236,96	-70,9
     41,5196	     3224,63	-71,2	     3248,07	-70,8
     41,5215	     3226,54	-70,5	     3246,34	-71,1
     41,5235	     3243,31	-70,1	     3250,68	-71,2
     41,5254	     3252,16	-71,6	     3262,49	-71,6
     41,5274	     3250,71	-70,8	     3267,33	-70,1
     41,5293	     3261,11	-71,3	     3277,22	-71,4
     41,5313	     3261,64	-70,4	     3279,81	-70,2
     41,5332	     3276,58	-70,0	     3286,32	-71,4
     41,5352	     3278,34	-70,7	     3303,33	-71,7
     41,5371	     3278,25	-70,5	     3293,94	-70,3
     41,5391	     3287,27	-71,5	     3292,09	-71,2
     41,5411	     3282,92	-71,2	     3310,05	-70,0
      41,543	     3290,14	-70,6	     3323,25	-70,6
      41,545	     3309,88	-70,4	     3326,61	-70,2
     41,5469	     3317,22	-71,1	     3325,82	-71,1
     41,5489	     3319,38	-71,4	     3326,29	-70,0
     41,5508	     3327,47	-70,3	     3337,59	-69,6
     41,5528	     3330,93	-70,7	     3350,57	-70,3
     41,5547	     3338,96	-69,6	     3349,27	-70,1
     41,5567	     3345,03	-69,6	     3364,32	-70,1
     41,5587	     3351,44	-70,6	        3365	-70,4
     41,5606	     3355,28	-70,2	     3375,79	-70,0
     41,5626	     3366,71	-70,1	     3389,28	-70,2
     41,5645	      3362,3	-69,6	     3387,97	-69,3
     41,5665	     3373,22	-69,0	     3394,31	-70,8
     41,5684	     3383,81	-70,2	     3403,89	-70,7
     41,5704	     3391,59	-69,6	     3410,77	-70,0
     41,5723	     3402,79	-70,5	     3419,53	-70,5
     41,5743	     3403,14	-70,8	     3417,76	-69,1
     41,5762	     3402,14	-70,1	     3430,26	-69,1
     41,5782	     3419,33	-69,4	     3434,18	-69,7
     41,5802	     3426,46	-69,8	     3431,62	-69,6
     41,5821	      3421,6	-70,2	     3449,33	-70,0
     41,5841	     3434,27	-69,7	     3448,86	-69,3
      41,586	     3434,85	-70,1	      3456,1	-69,7
      41,588	     3435,76	-68,7	     3469,58	-69,6
     41,5899	     3443,27	-69,1	      3481,6	-69,7
     41,5919	     3457,73	-70,2	     3478,78	-70,4
     41,5938	     3467,18	-69,4	     3480,74	-68,8
     41,5958	     3476,67	-69,9	     3490,85	-69,4
     41,5978	     3487,02	-69,3	     3498,01	-68,7
     41,5997	     3494,01	-69,3	     3502,92	-68,9
     41,6017	      3498,4	-69,6	        3525	-69,9
     41,6036	     3503,19	-69,2	     3527,18	-69,2
     41,6056	     3506,49	-69,8	     3536,51	-69,2
     41,6075	     3508,84	-69,3	     3541,67	-68,7
     41,6095	      3522,6	-68,8	     3546,57	-69,1
     41,6114	     3526,49	-68,6	     3552,08	-69,5
     41,6134	     3534,52	-68,0	     3564,46	-69,1
     41,6153	     3546,89	-69,6	      3560,2	-69,6
     41,6173	     3545,48	-69,3	     3561,41	-68,1
     41,6193	      3551,1	-69,1	     3571,91	-68,5
     41,6212	     3567,93	-68,9	     3594,23	-68,0
     41,6232	     3570,31	-67,8	     3597,86	-68,2
     41,6251	     3580,22	-69,0	      3605,9	-69,4
     41,6271	     3591,72	-68,5	     3615,38	-69,2
      41,629	     3595,11	-68,9	     3623,07	-68,6
      41,631	     3601,06	-69,7	      3627,1	-68,6
     41,6329	     3595,67	-67,7	     3626,33	-68,2
     41,6349	     3602,75	-68,1	      3637,4	-68,8
     41,6369	     3612,92	-67,7	     3651,71	-68,2
     41,6388	     3622,63	-67,3	      3653,1	-68,5
     41,6408	     3632,59	-68,8	     3666,43	-68,2
     41,6427	     3646,07	-68,1	     3665,66	-67,6
     41,6447	     3653,33	-68,6	     3670,87	-68,5
     41,6466	     3650,18	-68,3	     3676,14	-68,1
     41,6486	     3660,63	-67,7	     3694,31	-68,6
     41,6505	     3665,97	-68,6	     3710,12	-68,8
     41,6525	     3670,52	-67,9	      3709,7	-67,6
     41,6544	     3675,43	-68,3	      3715,2	-68,1
     41,6564	     3692,86	-66,6	     3719,84	-66,8
     41,6584	     3700,64	-67,6	     3728,34	-67,6
     41,6603	     3712,29	-68,2	     3747,01	-67,5
     41,6623	     3711,66	-67,3	     3752,58	-67,4
     41,6642	     3730,86	-68,5	     3760,81	-67,6
     41,6662	     3739,37	-68,3	     3774,67	-67,6
     41,6681	     3740,72	-67,4	     3777,67	-67,1
     41,6701	     3745,95	-68,0	     3785,13	-67,5
      41,672	     3752,37	-66,7	     3783,39	-67,3
      41,674	     3757,81	-67,2	     3791,88	-67,6
      41,676	     3771,68	-67,4	     3807,23	-68,4
     41,6779	     3781,75	-67,4	     3811,57	-66,6
     41,6799	     3789,17	-67,1	     3814,31	-67,6
     41,6818	     3799,52	-66,2	     3830,42	-66,2
     41,6838	     3806,81	-67,5	     3831,25	-66,7
     41,6857	     3809,82	-67,3	     3841,84	-67,0
     41,6877	     3820,96	-67,8	     3850,64	-67,0
     41,6896	     3823,25	-67,5	        3867	-67,8
     41,6916	     3844,69	-66,0	     3872,91	-67,0
     41,6936	     3845,09	-67,0	     3882,38	-66,0
     41,6955	     3852,52	-66,3	     3889,59	-66,8
     41,6975	      3855,4	-66,1	     3900,53	-66,3
     41,6994	     3869,57	-66,7	     3909,67	-66,9
     41,7014	     3879,95	-66,7	     3913,21	-67,1
     41,7033	     3886,88	-66,2	     3913,66	-66,7
     41,7053	      3894,7	-66,8	     3918,51	-67,1
     41,7072	      3895,9	-66,1	     3940,96	-65,9
     41,7092	     3902,98	-66,1	     3963,96	-66,7
     41,7111	     3928,03	-65,9	     3965,38	-66,2
     41,7131	     3933,28	-66,0	     3970,23	-66,3
     41,7151	     3942,77	-66,5	     3969,42	-66,5
      41,717	     3948,78	-66,1	     3974,37	-65,6
      41,719	     3942,72	-66,3	     3981,72	-65,6
     41,7209	     3946,63	-65,7	      4001,2	-66,2
     41,7229	     3965,16	-65,8	     4017,27	-65,0
     41,7248	     3982,14	-65,8	     4010,76	-65,3
     41,7268	     4001,49	-65,4	     4027,34	-66,4
     41,7287	     4014,07	-65,8	     4040,15	-65,4
     41,7307	     4018,66	-66,8	     4049,91	-65,9
     41,7327	     4013,94	-64,8	     4053,83	-66,0
     41,7346	     4018,69	-65,2	     4052,54	-65,1
     41,7366	     4028,21	-65,6	     4063,86	-65,6
     41,7385	      4046,1	-66,1	     4083,98	-65,2
     41,7405	      4049,8	-66,0	     4096,38	-65,5
     41,7424	     4063,37	-64,7	     4104,46	-65,1
     41,7444	     4064,09	-65,4	      4112,7	-65,1
     41,7463	     4074,46	-65,5	     4119,86	-65,2
     41,7483	     4086,46	-64,7	     4134,16	-64,5
     41,7502	     4098,23	-64,7	     4144,06	-64,8
     41,7522	     4101,83	-65,1	     4156,11	-65,4
     41,7542	     4112,04	-64,7	     4174,05	-64,9
     41,7561	     4129,05	-65,0	      4173,4	-65,1
     41,7581	     4134,84	-64,5	     4187,14	-65,4
       41,76	     4148,32	-64,4	     4190,12	-63,8
      41,762	     4156,29	-64,5	     4190,05	-64,7
     41,7639	     4156,65	-64,3	     4200,26	-63,6
     41,7659	     4168,56	-64,2	     4216,43	-63,7
     41,7678	      4186,1	-63,9	     4239,27	-65,0
     41,7698	     4198,07	-64,3	     4244,74	-64,2
     41,7718	     4215,09	-64,1	     4251,81	-64,5
     41,7737	      4219,1	-63,4	     4267,31	-64,7
     41,7757	      4218,5	-64,4	      4267,2	-62,9
     41,7776	     4233,22	-64,1	     4271,34	-63,4
     41,7796	     4249,17	-63,9	     4281,69	-63,4
     41,7815	     4250,22	-64,5	     4293,96	-63,4
     41,7835	     4264,99	-63,0	     4314,84	-64,3
     41,7854	     4279,18	-63,3	     4327,78	-63,9
     41,7874	     4275,61	-63,3	     4341,78	-63,3
     41,7893	     4283,58	-62,5	      4341,2	-63,6
     41,7913	     4303,79	-63,5	      4345,2	-63,4
     41,7933	     4320,01	-63,5	      4357,5	-63,2
     41,7952	     4332,66	-63,4	     4369,95	-63,1
     41,7972	      4337,5	-63,5	     4390,61	-63,0
     41,7991	     4347,42	-62,6	     4407,02	-63,7
     41,8011	     4364,09	-62,3	     4408,41	-62,3
      41,803	     4378,97	-62,9	     4411,53	-62,8
      41,805	     4386,02	-62,5	     4432,91	-63,0
     41,8069	     4388,63	-63,4	     4449,43	-62,3
     41,8089	     4402,99	-63,3	     4467,59	-62,6
     41,8109	     4413,29	-62,3	     4474,75	-62,5
     41,8128	     4420,05	-62,8	     4477,08	-62,5
     41,8148	     4429,79	-61,8	     4486,81	-62,7
     41,8167	     4434,05	-61,6	     4500,64	-62,1
     41,8187	     4453,24	-62,7	      4503,3	-62,0
     41,8206	        4463	-62,9	     4512,34	-62,3
     41,8226	     4470,85	-62,8	     4527,33	-61,5
     41,8245	     4488,11	-61,8	     4545,56	-62,3
     41,8265	     4503,06	-61,3	     4561,47	-62,2
     41,8284	     4510,91	-61,9	     4563,05	-62,0
     41,8304	     4519,36	-61,6	     4577,22	-62,0
     41,8324	     4529,24	-62,0	     4592,08	-61,5
     41,8343	      4536,1	-62,2	     4599,21	-61,5
     41,8363	     4550,78	-61,9	     4612,14	-61,4
     41,8382	     4572,19	-62,1	     4627,39	-61,4
     41,8402	     4575,34	-62,3	      4639,1	-61,3
     41,8421	     4576,01	-60,5	     4640,98	-61,4
     41,8441	     4593,29	-60,7	     4653,17	-61,9
      41,846	     4607,22	-60,4	     4676,13	-61,2
      41,848	     4613,61	-60,5	     4689,91	-61,5
       41,85	     4635,18	-61,7	     4692,17	-60,4
     41,8519	     4637,03	-60,8	     4704,92	-60,4
     41,8539	     4649,91	-61,1	     4731,86	-60,8
     41,8558	     4670,71	-61,4	     4747,06	-60,4
     41,8578	      4680,2	-59,4	     4748,57	-60,2
     41,8597	      4688,1	-60,0	      4758,2	-60,4
     41,8617	     4705,26	-60,5	     4772,46	-60,6
     41,8636	     4718,96	-59,8	     4785,69	-60,8
     41,8656	     4736,66	-60,8	     4803,34	-60,6
     41,8675	     4744,86	-60,8	     4812,45	-59,8
     41,8695	     4752,83	-60,0	     4830,24	-60,0
     41,8715	     4766,38	-60,3	     4843,83	-59,9
     41,8734	     4783,91	-58,5	     4847,62	-59,5
     41,8754	     4795,64	-58,9	     4865,49	-60,5
     41,8773	     4803,72	-59,7	     4878,04	-59,8
     41,8793	     4814,56	-59,7	     4892,77	-59,7
     41,8812	     4832,95	-60,3	     4907,31	-59,7
     41,8832	     4838,41	-60,3	     4923,12	-58,7
     41,8851	     4855,79	-59,3	     4928,73	-58,3
     41,8871	     4870,84	-59,1	     4944,78	-58,7
     41,8891	     4875,23	-58,8	     4956,36	-58,5
      41,891	     4885,15	-58,2	     4978,53	-59,6
      41,893	     4903,03	-58,8	     4992,02	-59,3
     41,8949	     4917,15	-59,1	     5003,08	-58,5
     41,8969	     4939,41	-58,4	     5014,67	-59,0
     41,8988	     4938,51	-58,9	     5030,92	-59,0
     41,9008	     4954,82	-58,6	     5042,76	-57,6
     41,9027	     4969,89	-58,5	     5049,68	-58,0
     41,9047	     4990,68	-58,7	     5076,19	-57,8
     41,9066	     4999,11	-57,7	      5090,6	-58,4
     41,9086	     5003,41	-58,3	     5100,55	-58,3
     41,9106	     5011,18	-58,5	      5116,6	-57,8
     41,9125	     5027,18	-57,9	     5129,71	-58,1
     41,9145	     5046,78	-57,8	     5150,28	-57,9
     41,9164	     5071,19	-57,8	      5159,3	-57,3
     41,9184	     5080,37	-57,4	     5161,92	-57,0
     41,9203	     5096,63	-57,4	     5177,73	-57,1
     41,9223	     5106,14	-57,4	     5195,85	-56,7
     41,9242	     5120,92	-56,1	     5211,18	-57,6
     41,9262	     5128,37	-56,7	     5227,43	-57,5
     41,9282	     5145,99	-57,5	     5252,14	-56,8
     41,9301	      5159,4	-57,1	     5258,39	-56,6
     41,9321	     5179,96	-56,8	     5274,06	-57,1
      41,934	     5195,45	-57,0	     5289,48	-55,7
      41,936	     5210,38	-56,2	      5295,8	-56,4
     41,9379	     5227,18	-56,4	     5323,46	-56,9
     41,9399	     5239,24	-55,5	     5341,21	-55,0
     41,9418	     5256,76	-55,2	     5348,01	-55,1
     41,9438	     5269,61	-57,0	     5370,17	-56,5
     41,9457	     5271,73	-56,0	     5389,49	-55,9
     41,9477	     5289,67	-56,5	     5417,28	-56,6
     41,9497	     5308,59	-56,6	     5422,53	-55,6
     41,9516	     5314,16	-55,0	     5438,75	-54,9
     41,9536	     5335,33	-55,3	     5451,68	-55,6
     41,9555	     5356,11	-55,8	     5471,37	-54,5
     41,9575	     5378,39	-54,5	     5488,81	-54,3
     41,9594	     5386,56	-54,6	     5514,24	-55,4
     41,9614	     5395,96	-55,5	     5527,37	-55,0
     41,9633	     5411,29	-54,6	     5543,62	-54,4
     41,9653	     5436,89	-55,6	     5553,77	-54,9
     41,9673	      5450,3	-55,8	     5571,53	-54,4
     41,9692	     5473,59	-53,9	      5594,1	-54,1
     41,9712	     5482,07	-54,2	     5605,41	-54,3
     41,9731	     5498,63	-53,4	     5619,37	-53,6
     41,9751	     5505,81	-53,6	     5634,71	-53,8
      41,977	     5535,56	-54,4	     5646,91	-53,8
      41,979	     5555,62	-54,3	     5665,34	-53,1
     41,9809	     5571,54	-53,6	     5680,97	-53,2
     41,9829	     5583,65	-54,3	     5706,46	-54,2
     41,9848	     5601,59	-53,3	     5726,72	-53,3
     41,9868	      5621,1	-52,9	     5745,19	-53,1
     41,9888	     5630,99	-53,4	      5769,6	-53,4
     41,9907	     5651,77	-53,1	     5789,33	-53,4
     41,9927	     5659,31	-52,3	     5798,67	-52,1
     41,9946	     5685,67	-52,8	     5809,67	-52,4
     41,9966	     5700,33	-52,8	        5834	-52,3
     41,9985	     5722,44	-52,2	     5851,86	-52,6
     42,0005	     5735,77	-52,5	     5866,14	-52,6
     42,0024	     5752,98	-52,6	     5890,81	-52,0
     42,0044	      5766,5	-52,2	     5909,01	-51,9
     42,0064	     5785,96	-52,6	     5930,22	-52,1
     42,0083	     5798,72	-52,3	     5944,82	-51,7
     42,0103	     5815,13	-51,0	      5963,3	-51,0
     42,0122	     5828,17	-51,5	     5985,18	-50,9
     42,0142	     5843,98	-50,8	     6003,42	-51,1
     42,0161	     5862,48	-50,8	     6026,97	-50,9
     42,0181	     5895,11	-51,9	      6040,5	-50,7
       42,02	     5915,63	-51,2	      6064,6	-50,6
      42,022	     5936,65	-51,6	     6074,67	-50,0
     42,0239	     5942,44	-51,5	     6112,91	-51,4
     42,0259	     5970,66	-50,4	     6131,04	-50,6
     42,0279	     5989,95	-49,8	     6154,28	-49,4
     42,0298	     6008,03	-50,3	     6160,84	-49,7
     42,0318	      6025,7	-49,4	     6181,65	-48,6
     42,0337	     6043,43	-49,5	     6196,23	-48,5
     42,0357	     6054,91	-49,9	      6226,2	-49,7
     42,0376	     6072,56	-49,6	     6258,08	-48,9
     42,0396	      6101,1	-49,6	     6283,94	-48,7
     42,0415	     6112,97	-50,0	     6294,25	-49,4
     42,0435	     6132,16	-48,8	     6316,62	-48,3
     42,0455	     6147,07	-48,9	     6336,36	-48,2
     42,0474	     6173,46	-49,1	     6359,41	-48,2
     42,0494	     6190,96	-48,4	     6372,37	-48,4
     42,0513	     6207,64	-47,6	     6392,82	-47,2
     42,0533	     6227,12	-48,4	     6413,51	-47,4
     42,0552	     6245,23	-48,2	      6441,7	-46,7
     42,0572	     6270,09	-47,5	     6457,61	-46,8
     42,0591	        6303	-48,7	     6486,21	-46,9
     42,0611	     6321,41	-47,9	     6499,04	-47,0
      42,063	     6344,32	-47,4	     6532,17	-46,9
      42,065	     6361,02	-47,8	     6546,32	-47,3
      42,067	     6376,48	-47,8	     6574,43	-46,4
     42,0689	      6401,1	-46,5	     6582,86	-45,8
     42,0709	     6418,24	-46,7	     6602,04	-45,6
     42,0728	     6430,45	-46,1	     6626,41	-45,9
     42,0748	     6452,38	-45,9	     6653,92	-44,3
     42,0767	     6480,45	-46,8	      6665,1	-45,0
     42,0787	     6501,09	-46,2	      6694,3	-44,9
     42,0806	     6533,24	-45,9	     6713,54	-44,3
     42,0826	     6546,38	-46,1	     6733,89	-45,5
     42,0846	     6559,39	-46,5	     6764,55	-44,8
     42,0865	     6592,16	-44,9	     6791,03	-44,2
     42,0885	     6619,48	-45,1	     6821,76	-44,4
     42,0904	     6632,88	-44,7	     6842,39	-43,8
     42,0924	     6644,78	-44,5	     6853,68	-43,4
     42,0943	     6668,23	-44,5	     6881,39	-43,6
     42,0963	     6679,12	-44,0	     6908,52	-43,3
     42,0982	     6704,67	-43,5	     6942,18	-42,1
     42,1002	     6720,87	-43,1	      6949,1	-42,1
     42,1021	     6746,47	-44,4	      6975,2	-43,3
     42,1041	     6760,38	-43,5	     6993,56	-42,5
     42,1061	     6800,83	-43,5	     7024,25	-42,7
      42,108	     6820,15	-43,8	     7041,75	-42,5
       42,11	     6846,36	-42,9	      7063,4	-42,2
     42,1119	     6863,59	-42,5	     7092,18	-41,3
     42,1139	     6886,81	-42,4	     7111,87	-41,5
     42,1158	     6909,87	-41,9	     7141,87	-41,1
     42,1178	     6938,49	-41,6	     7165,04	-40,4
     42,1197	     6951,35	-41,6	     7182,14	-40,8
     42,1217	     6980,46	-41,6	     7215,27	-40,0
     42,1237	     6995,27	-40,6	     7227,64	-39,6
     42,1256	     7032,37	-41,9	     7258,63	-40,3
     42,1276	     7057,58	-41,4	     7287,77	-40,0
     42,1295	     7071,13	-40,7	     7318,39	-39,5
     42,1315	     7096,59	-41,2	     7333,76	-39,2
     42,1334	     7112,82	-39,9	     7357,42	-39,3
     42,1354	      7141,3	-39,6	     7383,37	-38,7
     42,1373	     7169,67	-39,4	     7406,97	-38,9
     42,1393	     7193,95	-39,3	     7434,78	-38,7
     42,1413	     7220,63	-38,6	     7453,65	-37,9
     42,1432	     7236,58	-38,5	     7479,31	-37,3
     42,1452	     7260,75	-39,0	     7500,19	-37,7
     42,1471	     7282,96	-38,5	     7542,14	-36,6
     42,1491	     7298,68	-38,1	     7573,73	-37,3
      42,151	     7337,58	-38,8	     7596,28	-37,3
      42,153	     7353,42	-38,7	     7619,47	-36,3
     42,1549	     7381,07	-38,0	     7648,94	-36,5
     42,1569	     7407,87	-38,0	     7681,28	-37,0
     42,1588	     7429,85	-37,2	     7709,36	-36,4
     42,1608	     7455,36	-36,7	     7728,57	-35,4
     42,1628	      7480,5	-36,4	     7740,76	-35,5
     42,1647	      7505,4	-36,4	     7768,94	-35,8
     42,1667	     7523,44	-35,3	     7797,79	-33,8
     42,1686	     7534,86	-35,1	      7819,4	-33,6
     42,1706	     7563,86	-35,9	     7838,09	-34,3
     42,1725	     7587,93	-35,3	     7858,77	-33,5
     42,1745	     7612,92	-35,2	     7879,73	-32,8
     42,1764	     7642,45	-35,2	     7906,08	-33,8
     42,1784	     7662,31	-34,6	     7926,54	-32,8
     42,1804	     7674,73	-34,4	     7947,17	-33,3
     42,1823	     7706,82	-34,5	      7970,2	-33,1
     42,1843	      7731,2	-34,4	     8001,78	-31,9
     42,1862	      7750,6	-32,8	     8026,19	-31,8
     42,1882	     7776,97	-32,9	     8046,66	-32,2
     42,1901	     7790,57	-32,7	     8067,21	-31,5
     42,1921	      7812,8	-32,7	     8085,17	-31,4
      42,194	     7838,05	-32,6	     8098,55	-30,8
      42,196	     7857,76	-32,4	     8112,63	-30,7
     42,1979	        7899	-31,9	     8132,48	-29,3
     42,1999	     7920,86	-31,0	      8157,5	-30,7
     42,2019	        7948	-31,9	      8171,2	-30,1
     42,2038	     7962,88	-31,9	     8195,66	-29,6
     42,2058	     7993,33	-30,9	     8233,77	-28,7
     42,2077	     8013,13	-31,2	     8260,76	-28,8
     42,2097	     8038,89	-30,1	     8282,03	-28,5
     42,2116	     8062,19	-30,0	     8299,62	-28,1
     42,2136	     8082,55	-29,8	     8315,27	-28,7
     42,2155	     8101,85	-30,0	     8341,64	-28,2
     42,2175	        8116	-28,8	     8375,21	-26,5
     42,2195	      8143,3	-28,3	     8393,89	-26,6
     42,2214	     8175,57	-28,7	     8417,58	-26,7
     42,2234	     8201,97	-28,3	     8437,61	-26,3
     42,2253	     8225,59	-27,5	        8467	-25,6
     42,2273	     8257,18	-27,0	     8487,73	-25,7
     42,2292	     8290,42	-27,6	      8529,2	-25,2
     42,2312	     8296,74	-26,7	     8560,08	-24,6
     42,2331	     8327,41	-27,5	     8585,87	-25,7
     42,2351	     8342,98	-27,4	     8613,95	-24,9
      42,237	     8365,01	-25,6	      8633,4	-24,2
      42,239	      8375,6	-26,1	     8646,33	-24,1
      42,241	      8405,4	-25,7	     8682,62	-24,2
     42,2429	      8425,9	-25,1	     8700,21	-23,7
