X-Data [Hz]	Piezo (M - Filtered) [mV]	Phase [Deg]	Piezo (M - Filtered) [mV]	Phase [Deg]	
	002: [07-10-24 07:47]		003: [07-10-24 07:50]	
        41,5	     49,6215	-105,6	     55,2248	-102,6
      41,502	     49,8958	-101,9	     54,9533	-103,8
     41,5039	     51,5745	-102,4	     54,8193	-102,8
     41,5059	     53,1057	-101,9	     55,2881	-104,2
     41,5078	     53,6917	-102,2	     54,9443	-102,2
     41,5098	     54,0599	-104,0	     55,5909	-104,7
     41,5117	     54,0258	-102,9	     55,3336	-103,3
     41,5137	     54,6213	-104,5	     55,9045	-104,7
     41,5156	     54,5104	-103,0	     56,1267	-104,1
     41,5176	     55,1151	-104,9	     55,8925	-103,3
     41,5196	     54,9468	-103,9	     56,2339	-104,1
     41,5215	     55,4263	-103,8	     55,6944	-102,7
     41,5235	     55,3457	-104,4	      55,809	-103,5
     41,5254	     55,2725	-103,0	     56,0972	-102,4
     41,5274	     55,6753	-104,3	     56,0976	-102,0
     41,5293	     55,6002	-102,2	     56,5211	-103,6
     41,5313	     55,9585	-103,3	     56,2979	-101,9
     41,5332	     55,6266	-102,7	     56,9362	-104,6
     41,5352	     55,5638	-102,2	      56,854	-103,3
     41,5371	     56,1287	-103,5	     57,2398	-104,1
     41,5391	     56,1475	-102,6	     57,1816	-103,1
     41,5411	     56,5103	-104,4	     57,2703	-103,6
      41,543	     56,1896	-102,5	     57,4339	-104,4
      41,545	     56,5666	-104,3	     56,9252	-101,9
     41,5469	     56,3631	-103,4	      57,365	-103,5
     41,5489	     56,8743	-104,1	     57,5797	-101,8
     41,5508	     56,9788	-104,2	      57,699	-102,2
     41,5528	     57,1379	-102,4	     58,1183	-103,1
     41,5547	     57,2536	-103,7	     57,8918	-103,4
     41,5567	     56,8966	-102,2	     58,2285	-104,0
     41,5587	     57,1545	-102,9	     58,0155	-102,1
     41,5606	     57,1742	-102,2	     58,4222	-103,2
     41,5626	     57,3706	-101,9	     58,3709	-101,7
     41,5645	     57,7531	-103,3	     58,5219	-102,4
     41,5665	     57,5083	-101,8	     58,6037	-101,7
     41,5684	     57,8999	-102,3	     58,5221	-101,5
     41,5704	     57,8264	-102,8	     58,9041	-102,8
     41,5723	     58,3403	-103,2	      59,016	-101,7
     41,5743	     58,4381	-103,6	      59,078	-102,1
     41,5762	     58,5148	-102,5	     59,4044	-102,4
     41,5782	     58,7865	-103,7	     59,4026	-101,5
     41,5802	      58,399	-101,7	     60,1369	-103,2
     41,5821	     58,5423	-102,0	      59,703	-101,6
     41,5841	     58,7116	-102,5	     59,9932	-102,9
      41,586	     58,7834	-101,2	     59,8881	-101,6
      41,588	     59,5555	-103,7	     59,9503	-101,5
     41,5899	     59,3634	-102,5	     60,6411	-102,3
     41,5919	     59,6725	-103,3	     60,2473	-101,3
     41,5938	     59,6239	-103,1	     60,7783	-103,4
     41,5958	     59,8343	-102,8	     60,9717	-102,8
     41,5978	     59,9996	-103,4	     60,8116	-102,2
     41,5997	      59,857	-101,8	     61,0381	-101,4
     41,6017	     60,3465	-103,3	     61,0833	-100,9
     41,6036	     60,0246	-100,9	     61,3567	-103,1
     41,6056	     60,3206	-101,9	     61,2196	-100,5
     41,6075	     60,3078	-101,8	     61,5697	-101,9
     41,6095	     60,2569	-101,4	     61,6396	-101,0
     41,6114	      60,847	-102,8	     61,7402	-100,9
     41,6134	      60,668	-101,6	     62,2479	-102,7
     41,6153	     61,2955	-103,3	     62,2143	-101,7
     41,6173	       61,21	-102,5	     62,4064	-102,8
     41,6193	     61,1751	-101,3	     62,6938	-102,9
     41,6212	     61,6986	-103,0	     62,4467	-101,5
     41,6232	     61,3741	-101,0	     63,1651	-102,6
     41,6251	     61,7684	-102,1	     62,6745	-100,9
     41,6271	     61,7142	-101,1	     62,7872	-101,8
      41,629	     61,9684	-101,5	     62,7011	-100,6
      41,631	     62,1365	-101,8	     63,0755	-100,9
     41,6329	     62,0042	-100,7	     63,7514	-101,6
     41,6349	     62,5909	-102,7	     63,7657	-100,5
     41,6369	     62,5397	-101,7	     64,2749	-102,6
     41,6388	     63,0116	-102,7	     64,0116	-101,3
     41,6408	     62,8837	-103,0	      63,903	-101,6
     41,6427	     62,9281	-101,1	     64,2436	-102,2
     41,6447	     63,2513	-102,5	     64,1756	-100,8
     41,6466	      63,269	-101,9	     64,7112	-101,7
     41,6486	     63,5534	-101,9	     64,7658	-100,4
     41,6505	     63,7719	-102,8	      64,859	-100,8
     41,6525	     63,6635	-100,3	     65,2165	-100,8
     41,6544	     64,1653	-101,3	     64,8987	-99,8
     41,6564	     63,7736	-100,4	     65,6632	-101,6
     41,6584	     64,3819	-102,7	     65,6152	-100,9
     41,6603	     64,2725	-102,1	      65,947	-101,7
     41,6623	     64,5295	-101,3	     66,1303	-101,6
     41,6642	     64,8153	-101,9	     65,8642	-100,6
     41,6662	     64,6931	-100,4	     66,3699	-101,7
     41,6681	     65,1485	-101,4	     66,1049	-100,1
     41,6701	     64,9588	-100,2	     66,3251	-100,4
      41,672	     65,3166	-100,8	     66,7027	-100,7
      41,674	     65,7979	-101,8	     66,6247	-99,6
      41,676	     65,3073	-99,8	     67,2812	-101,3
     41,6779	     65,6016	-100,3	     67,2052	-99,8
     41,6799	     65,7575	-101,0	     67,3053	-99,5
     41,6818	     65,8161	-100,0	     67,6038	-100,9
     41,6838	     66,5145	-102,0	     67,5707	-100,5
     41,6857	     66,4385	-100,0	     68,1219	-101,5
     41,6877	     66,7816	-101,3	     67,9075	-99,2
     41,6896	     66,8034	-101,2	     68,2131	-99,8
     41,6916	     66,9258	-100,7	     68,6716	-100,3
     41,6936	     67,1512	-101,8	     68,5416	-99,5
     41,6955	      67,001	-99,1	     69,0039	-101,0
     41,6975	     67,5083	-100,3	      68,936	-99,9
     41,6994	     67,3181	-99,8	     69,3568	-100,5
     41,7014	     67,5138	-99,4	      69,605	-100,9
     41,7033	     68,1545	-101,6	     69,2749	-100,3
     41,7053	     68,0346	-100,4	     69,6967	-101,1
     41,7072	     68,4098	-101,0	     70,0663	-100,9
     41,7092	      67,891	-99,2	     69,9768	-99,7
     41,7111	     68,3116	-99,1	     70,2423	-99,3
     41,7131	     68,8845	-100,4	     70,3266	-99,0
     41,7151	     68,8436	-99,7	     71,0245	-100,9
      41,717	       69,38	-100,8	     70,9117	-99,4
      41,719	     69,0971	-100,2	     70,7269	-99,0
     41,7209	      69,145	-98,5	      71,479	-100,2
     41,7229	      69,945	-100,7	     71,2809	-99,1
     41,7248	     69,8541	-99,7	     71,9853	-100,6
     41,7268	      70,515	-100,7	     72,1848	-100,3
     41,7287	      70,476	-100,7	     71,7234	-99,6
     41,7307	     70,2219	-99,2	     72,3692	-100,3
     41,7327	     70,5853	-100,2	     72,1528	-98,2
     41,7346	     70,2974	-98,8	     72,4874	-98,5
     41,7366	     70,8219	-98,9	       73,15	-99,3
     41,7385	      71,223	-99,9	      72,743	-99,6
     41,7405	     71,2407	-98,9	     73,2636	-100,1
     41,7424	     72,0141	-100,3	     73,1188	-97,9
     41,7444	     71,6627	-99,9	     73,4271	-98,9
     41,7463	     72,0855	-100,2	     74,0728	-98,5
     41,7483	     72,2682	-100,6	     73,7715	-97,8
     41,7502	     72,1924	-98,5	     74,5812	-99,9
     41,7522	     72,7137	-99,0	     74,4986	-99,0
     41,7542	     72,6724	-98,1	     74,4716	-97,9
     41,7561	     72,9766	-98,0	     75,2186	-99,1
     41,7581	     73,4177	-99,9	     75,1289	-98,0
       41,76	     73,1944	-99,1	     75,6361	-99,2
      41,762	     73,7709	-99,9	     76,0537	-99,3
     41,7639	     73,8141	-99,9	     75,7946	-98,0
     41,7659	     73,8226	-98,0	     76,1823	-98,9
     41,7678	     74,5924	-99,3	     76,1779	-97,3
     41,7698	     74,2986	-98,2	     76,1917	-97,3
     41,7718	     74,6155	-98,6	     76,9718	-98,9
     41,7737	     74,6285	-98,2	     76,7818	-97,5
     41,7757	     74,6545	-97,8	     77,3812	-99,5
     41,7776	     75,2977	-99,3	     77,7074	-98,9
     41,7796	     75,4625	-98,2	     77,5665	-98,2
     41,7815	     76,1423	-99,2	     78,2426	-98,7
     41,7835	     76,1237	-99,5	     78,1259	-96,8
     41,7854	     75,8349	-97,5	     78,1484	-97,5
     41,7874	     76,3103	-98,4	     78,6197	-97,9
     41,7893	     76,0262	-97,4	     78,7067	-97,1
     41,7913	     76,5964	-97,4	     79,4328	-98,5
     41,7933	     77,1118	-98,5	     79,4608	-97,7
     41,7952	     77,1075	-97,4	     79,8119	-97,9
     41,7972	     77,9615	-99,1	     80,3345	-98,3
     41,7991	     77,8254	-98,3	     80,2542	-96,9
     41,8011	      77,814	-97,6	     80,5943	-98,1
      41,803	     78,3046	-98,5	     80,8662	-98,3
      41,805	     78,2365	-96,7	     80,5445	-96,7
     41,8069	     78,8151	-97,4	     81,5077	-97,7
     41,8089	     78,9803	-97,6	     81,6256	-96,6
     41,8109	     78,9523	-96,7	     81,8355	-97,3
     41,8128	     79,6274	-98,0	     82,2522	-97,9
     41,8148	     79,4711	-97,3	     82,0056	-96,4
     41,8167	      79,495	-96,3	      82,486	-97,4
     41,8187	     80,3733	-98,7	     82,9353	-98,1
     41,8206	     80,3183	-97,9	     83,0077	-95,9
     41,8226	     80,7866	-97,4	     83,3746	-96,8
     41,8245	     81,1775	-97,7	     83,7031	-95,6
     41,8265	     80,7852	-95,9	      83,747	-95,7
     41,8284	     81,4857	-97,9	     84,5401	-97,3
     41,8304	     81,4583	-97,2	     84,5923	-96,4
     41,8324	     82,0187	-97,2	     84,9081	-96,2
     41,8343	     82,3941	-97,6	     85,1864	-95,3
     41,8363	     82,3263	-96,9	     85,1882	-95,0
     41,8382	     82,9461	-96,6	     85,4499	-95,7
     41,8402	     83,4502	-97,1	        85,9	-95,7
     41,8421	     83,2485	-95,8	     86,1034	-95,1
     41,8441	     83,7068	-96,8	     86,9215	-96,6
      41,846	     83,6316	-95,8	     87,0744	-95,1
      41,848	     83,8325	-95,6	     87,4035	-95,9
       41,85	      84,601	-96,7	     87,8586	-96,2
     41,8519	       84,59	-96,1	     87,7787	-94,8
     41,8539	      85,089	-96,3	      88,294	-95,5
     41,8558	     85,3784	-96,7	      88,557	-94,9
     41,8578	     85,4607	-95,1	      88,512	-94,7
     41,8597	     86,0437	-96,0	     89,5802	-95,7
     41,8617	     85,9678	-94,9	     89,7776	-95,0
     41,8636	     86,2477	-94,4	     90,1126	-95,4
     41,8656	     86,5562	-96,2	      90,597	-95,5
     41,8675	     86,6301	-95,3	     90,6329	-94,6
     41,8695	     87,4851	-96,2	     91,1051	-95,5
     41,8715	     87,8143	-96,6	     91,5716	-95,5
     41,8734	     87,7827	-94,3	     91,2268	-93,6
     41,8754	     88,3022	-95,4	     92,3185	-94,8
     41,8773	      88,153	-94,4	     92,3968	-93,9
     41,8793	     88,4078	-94,2	     92,3949	-93,3
     41,8812	     89,2416	-95,5	     93,4566	-95,0
     41,8832	     89,3254	-94,8	     93,5215	-93,9
     41,8851	     89,6788	-93,9	     93,9474	-94,2
     41,8871	     90,3507	-95,3	     94,4601	-94,8
     41,8891	     90,3734	-94,2	     94,2035	-92,5
      41,891	     90,9732	-94,9	     94,5687	-93,4
      41,893	     91,1488	-95,0	     95,2998	-93,4
     41,8949	     91,0138	-93,5	     95,5689	-92,8
     41,8969	      92,084	-95,0	     96,5952	-94,2
     41,8988	     92,1889	-94,0	      96,716	-93,1
     41,9008	     92,5112	-93,1	     96,8277	-92,6
     41,9027	     93,3001	-94,6	     97,6961	-93,6
     41,9047	     93,1225	-94,0	     98,0798	-93,1
     41,9066	     93,9546	-94,0	     98,1436	-92,4
     41,9086	     94,1793	-94,8	     98,7335	-92,9
     41,9106	     94,0541	-92,5	     99,1306	-92,1
     41,9125	     94,6446	-92,9	     99,2247	-91,7
     41,9145	     94,9004	-93,5	     100,234	-92,7
     41,9164	     94,8807	-92,9	      100,54	-92,4
     41,9184	     95,8694	-93,5	     100,931	-92,3
     41,9203	       96,16	-93,4	     101,531	-92,5
     41,9223	      96,473	-92,4	     101,634	-91,5
     41,9242	     97,1057	-93,3	      102,35	-92,1
     41,9262	     97,3164	-92,1	     102,836	-91,1
     41,9282	     97,6951	-92,1	     103,077	-90,9
     41,9301	     98,2695	-92,6	     104,175	-92,2
     41,9321	     98,3148	-92,2	     104,577	-91,3
      41,934	      99,203	-93,1	     104,822	-90,7
      41,936	     99,4584	-92,9	     105,553	-91,1
     41,9379	     99,8968	-91,8	     105,844	-89,9
     41,9399	     100,528	-92,6	     106,312	-90,4
     41,9418	     100,449	-91,5	     106,969	-90,9
     41,9438	     100,855	-90,7	       107,3	-89,7
     41,9457	     101,587	-91,2	     107,697	-90,1
     41,9477	     101,717	-91,1	     108,697	-90,3
     41,9497	     102,116	-90,2	     108,964	-89,4
     41,9516	     103,123	-92,4	     109,966	-90,1
     41,9536	     103,209	-91,3	     110,618	-90,1
     41,9555	     104,114	-91,0	      110,56	-88,8
     41,9575	     104,614	-91,6	     111,365	-89,5
     41,9594	     104,318	-89,6	     112,116	-88,8
     41,9614	     105,053	-89,8	     112,397	-88,4
     41,9633	     105,558	-90,5	     113,923	-89,2
     41,9653	     105,892	-89,6	     114,417	-88,6
     41,9673	     106,975	-91,1	      114,97	-88,4
     41,9692	     107,409	-90,7	     115,985	-88,9
     41,9712	     107,799	-89,2	     116,305	-87,4
     41,9731	     108,539	-90,2	     116,953	-87,6
     41,9751	      108,51	-89,0	     118,145	-88,2
      41,977	     108,952	-88,5	     118,745	-87,4
      41,979	     110,018	-90,2	     119,466	-87,4
     41,9809	     110,164	-89,8	     120,493	-87,8
     41,9829	     110,857	-88,8	     121,224	-86,9
     41,9848	     111,524	-89,8	     122,004	-86,3
     41,9868	     111,545	-87,6	     123,551	-86,2
     41,9888	     112,281	-88,1	     123,993	-85,7
     41,9907	     112,941	-88,6	     125,053	-86,5
     41,9927	     113,216	-87,9	      126,02	-86,2
     41,9946	     113,794	-87,2	     126,537	-84,8
     41,9966	     115,102	-88,6	     127,635	-85,2
     41,9985	     115,227	-87,9	       129,2	-84,3
     42,0005	     116,265	-87,8	     129,987	-83,7
     42,0024	     116,562	-87,4	     131,611	-84,5
     42,0044	     116,962	-86,0	     132,936	-84,4
     42,0064	      118,28	-87,5	     133,929	-82,9
     42,0083	     118,461	-87,3	     135,409	-83,3
     42,0103	     118,771	-86,3	     137,421	-82,4
     42,0122	     120,195	-87,4	     138,505	-81,8
     42,0142	     120,538	-87,0	     140,888	-82,4
     42,0161	     121,026	-85,6	      142,34	-81,5
     42,0181	     121,858	-85,7	     143,856	-80,9
       42,02	     122,385	-85,7	     145,636	-81,0
      42,022	     122,904	-84,9	     147,905	-80,0
     42,0239	     124,265	-85,9	     149,232	-79,1
     42,0259	     124,833	-85,5	     151,919	-79,6
     42,0279	     125,336	-84,6	     153,732	-79,1
     42,0298	     126,131	-84,5	     155,545	-77,5
     42,0318	     126,756	-84,4	     158,015	-77,5
     42,0337	     127,346	-83,8	     160,306	-77,2
     42,0357	     128,631	-84,7	     162,623	-75,4
     42,0376	     128,952	-83,6	     164,789	-75,3
     42,0396	     130,316	-83,3	     167,987	-74,1
     42,0415	     131,172	-83,7	      169,85	-73,3
     42,0435	     131,491	-82,6	     173,004	-73,3
     42,0455	      132,27	-82,2	     175,625	-71,2
     42,0474	     133,539	-83,0	     177,616	-70,8
     42,0494	     134,032	-82,5	     181,131	-70,9
     42,0513	     135,245	-81,9	     183,239	-69,2
     42,0533	     136,185	-82,3	     185,476	-68,4
     42,0552	     136,726	-81,9	     187,827	-67,7
     42,0572	      137,87	-80,9	     190,723	-66,5
     42,0591	      138,72	-81,1	     192,612	-65,5
     42,0611	     139,457	-80,3	     195,264	-65,3
      42,063	     140,287	-79,9	     197,496	-63,0
      42,065	     142,139	-80,7	     199,201	-62,6
      42,067	     142,636	-79,1	     201,275	-62,3
     42,0689	     143,845	-78,7	     203,653	-60,7
     42,0709	     145,258	-79,0	     205,095	-59,8
     42,0728	     146,053	-78,5	      207,72	-59,7
     42,0748	     147,623	-77,7	     209,287	-58,9
     42,0767	     148,615	-78,0	     210,813	-57,5
     42,0787	     149,425	-76,9	     212,422	-57,2
     42,0806	     150,651	-76,4	     214,529	-56,1
     42,0826	     152,183	-76,9	     215,662	-54,9
     42,0846	     153,086	-76,0	     217,314	-54,4
     42,0865	     154,171	-75,0	     218,857	-52,8
     42,0885	     156,247	-75,4	     219,846	-52,3
     42,0904	     157,207	-74,9	     221,897	-52,3
     42,0924	     158,801	-73,8	     222,945	-51,3
     42,0943	     160,189	-73,5	      223,92	-50,7
     42,0963	     161,169	-73,3	     225,178	-50,6
     42,0982	     163,292	-72,8	     226,392	-50,0
     42,1002	     164,666	-72,9	     226,943	-48,2
     42,1021	     165,766	-70,9	     227,732	-47,9
     42,1041	     167,222	-70,5	     229,481	-46,9
     42,1061	     169,449	-70,3	     230,046	-46,1
      42,108	     170,886	-69,3	     230,867	-45,7
       42,11	      172,42	-67,9	     231,614	-45,4
     42,1119	     175,148	-68,6	     232,204	-44,3
     42,1139	      176,48	-67,8	     232,746	-43,4
     42,1158	     178,888	-66,4	     234,335	-43,7
     42,1178	     180,898	-66,1	     234,872	-42,8
     42,1197	     182,791	-65,2	     235,156	-42,2
     42,1217	     184,287	-64,4	      235,92	-42,0
     42,1237	     187,336	-63,7	     236,148	-40,3
     42,1256	     189,029	-63,0	     236,613	-39,9
     42,1276	     191,119	-61,0	     237,854	-39,8
     42,1295	     193,041	-60,3	     238,112	-38,5
     42,1315	     195,357	-59,9	     238,271	-38,9
     42,1334	      196,99	-58,7	      238,99	-38,9
     42,1354	     200,175	-58,3	     239,458	-37,3
     42,1373	     201,801	-57,6	     239,592	-37,1
     42,1393	     203,988	-55,4	     240,388	-37,2
     42,1413	      206,05	-55,2	     240,825	-36,5
     42,1432	     208,264	-54,0	     240,599	-35,6
     42,1452	     210,288	-52,5	      240,95	-35,5
     42,1471	     213,271	-52,0	      241,55	-34,0
     42,1491	     215,013	-50,9	     241,442	-33,6
      42,151	     216,417	-49,7	     242,457	-34,0
      42,153	     219,199	-48,5	     242,696	-33,5
     42,1549	     221,077	-48,1	     242,138	-32,9
     42,1569	     222,782	-46,2	     242,415	-32,5
     42,1588	     224,502	-45,3	     243,199	-32,1
     42,1608	     226,834	-44,4	     243,428	-31,4
     42,1628	      227,94	-43,6	     243,036	-31,3
     42,1647	     230,238	-41,6	     243,443	-31,1
     42,1667	     231,816	-41,0	     243,341	-29,7
     42,1686	     232,891	-39,6	     243,433	-29,7
     42,1706	     234,298	-38,4	     243,491	-29,6
     42,1725	     236,143	-38,5	     243,957	-28,6
     42,1745	     237,093	-37,5	     243,761	-28,3
     42,1764	     238,556	-35,7	     244,268	-28,5
     42,1784	     239,605	-34,8	     244,077	-27,7
     42,1804	      240,25	-34,6	     243,937	-27,6
     42,1823	     240,935	-33,7	     244,439	-27,5
     42,1843	     242,417	-32,4	      244,61	-27,1
     42,1862	     243,032	-32,2	     243,747	-26,1
     42,1882	     243,256	-30,5	     243,887	-26,2
     42,1901	     244,169	-29,6	     244,505	-25,4
     42,1921	     244,307	-29,9	     244,514	-24,8
      42,194	     244,524	-28,8	     244,142	-25,2
      42,196	      245,69	-28,8	     244,362	-25,1
     42,1979	     245,715	-28,5	     244,254	-24,2
     42,1999	     245,374	-26,8	     243,972	-23,9
     42,2019	     245,804	-26,6	     244,631	-24,0
     42,2038	     245,859	-26,3	     244,341	-23,3
     42,2058	     245,752	-25,8	     243,622	-22,9
     42,2077	     246,254	-25,0	     243,673	-23,1
     42,2097	      246,29	-24,9	     243,941	-21,9
     42,2116	     246,169	-24,7	      243,75	-21,5
     42,2136	     246,256	-23,5	     243,474	-21,8
     42,2155	     246,723	-23,4	     243,511	-21,8
     42,2175	     246,214	-23,4	     243,171	-20,9
     42,2195	     245,974	-22,9	     242,965	-20,7
     42,2214	     246,799	-22,3	     243,564	-21,2
     42,2234	     246,768	-22,5	     243,123	-20,3
     42,2253	     246,043	-21,5	     242,798	-19,9
     42,2273	      246,18	-21,2	     243,239	-19,6
     42,2292	     246,268	-21,1	     243,016	-19,2
     42,2312	     245,791	-20,5	     242,651	-19,1
     42,2331	     245,988	-19,6	     242,302	-19,1
     42,2351	     245,819	-19,6	     242,521	-18,5
