X-Data [Hz]	Piezo (M - Filtered) [mV]	Phase [Deg]	Piezo (M - Filtered) [mV]	Phase [Deg]	
	002: [07-09-24 14:12]		003: [07-09-24 14:16]	
        40,5	     56,2033	-106,8	     62,8653	-108,2
     40,5029	     58,8216	-107,5	     62,9011	-108,5
     40,5059	     60,8812	-108,1	     62,8614	-108,1
     40,5088	     61,6928	-108,0	     63,0328	-108,0
     40,5117	     62,3876	-108,2	     63,1355	-107,9
     40,5147	      62,551	-108,0	     63,1266	-107,9
     40,5176	     62,9231	-108,2	     63,3079	-108,4
     40,5205	     62,8963	-108,1	     63,4929	-108,0
     40,5235	     63,2065	-107,9	       63,62	-108,1
     40,5264	     63,1622	-108,3	     63,5936	-108,2
     40,5293	     63,4284	-108,2	     63,8727	-108,0
     40,5323	      63,565	-107,7	      63,932	-108,1
     40,5352	     63,6343	-108,1	     63,9474	-107,7
     40,5381	     63,6946	-108,0	     64,1173	-107,8
     40,5411	     63,8118	-108,0	     64,1696	-108,0
      40,544	     63,8567	-108,2	     64,4061	-107,8
     40,5469	     64,0119	-108,0	     64,4709	-108,3
     40,5499	     64,2034	-108,4	     64,5135	-107,6
     40,5528	     64,3727	-107,8	     64,7911	-107,6
     40,5557	     64,3426	-107,9	     64,5952	-107,9
     40,5587	     64,4528	-108,2	     65,0885	-107,9
     40,5616	     64,6326	-107,9	      64,894	-108,1
     40,5645	     64,8371	-108,1	     65,1975	-107,9
     40,5674	     64,8147	-108,1	     65,1689	-107,5
     40,5704	     64,9748	-107,7	     65,4696	-107,7
     40,5733	     64,9439	-107,8	     65,3645	-107,9
     40,5762	     65,3286	-107,8	     65,6425	-107,7
     40,5792	     65,1965	-107,8	     65,6742	-108,0
     40,5821	     65,6292	-107,8	     65,9962	-107,7
      40,585	     65,4747	-107,5	     65,9068	-107,4
      40,588	     65,6536	-107,7	     65,9955	-107,8
     40,5909	     65,8894	-108,0	     66,2508	-107,6
     40,5938	     65,8428	-107,9	     66,1536	-107,4
     40,5968	      66,006	-107,6	     66,4287	-107,8
     40,5997	     66,0271	-107,6	     66,5124	-107,4
     40,6026	     66,2483	-107,6	     66,7925	-107,8
     40,6056	     66,3249	-107,8	     66,6865	-107,7
     40,6085	     66,3742	-107,4	     66,9582	-107,5
     40,6114	     66,5696	-107,6	     66,9954	-107,2
     40,6144	     66,6044	-107,8	     67,0404	-107,6
     40,6173	      66,962	-107,5	      67,351	-107,2
     40,6202	     66,7552	-107,3	     67,2649	-107,7
     40,6232	     67,1319	-107,6	     67,7497	-107,5
     40,6261	     66,9191	-107,2	     67,5198	-107,6
      40,629	     67,5048	-107,5	     67,8004	-107,4
      40,632	     67,2352	-107,7	     67,7792	-107,6
     40,6349	     67,5007	-107,1	     68,1808	-107,2
     40,6378	      67,771	-107,6	     68,1108	-107,5
     40,6408	     67,6881	-107,5	     68,3757	-107,3
     40,6437	     67,9222	-107,3	     68,3444	-107,0
     40,6466	     68,0005	-107,5	     68,5462	-107,2
     40,6496	     68,0244	-107,2	      68,804	-107,3
     40,6525	     68,2578	-107,0	     68,7498	-107,0
     40,6554	     68,5119	-107,6	     68,7593	-107,4
     40,6584	     68,3734	-107,2	     69,2808	-107,4
     40,6613	     68,6508	-107,2	     68,9188	-107,0
     40,6642	     68,6908	-107,3	     69,4926	-107,4
     40,6672	      69,005	-107,0	     69,3404	-106,9
     40,6701	     69,0369	-107,0	     69,5601	-107,0
      40,673	     69,1158	-107,0	      69,562	-106,9
      40,676	     69,2778	-106,9	     69,8725	-107,0
     40,6789	     69,3095	-107,2	     69,9586	-106,8
     40,6818	      69,652	-107,4	     70,0133	-107,2
     40,6847	     69,6104	-107,4	     70,3591	-107,3
     40,6877	     69,7858	-107,4	     70,1966	-106,9
     40,6906	     69,9433	-107,2	     70,5834	-107,1
     40,6936	     69,9567	-107,1	      70,564	-107,1
     40,6965	     70,1588	-107,2	     70,8409	-106,9
     40,6994	      70,264	-107,3	     70,8112	-107,0
     40,7023	     70,4855	-107,0	     71,1561	-106,8
     40,7053	     70,5895	-107,2	     71,0462	-107,0
     40,7082	     70,8724	-107,4	      71,243	-107,2
     40,7111	     70,9212	-107,2	     71,6635	-107,2
     40,7141	     71,0191	-107,1	     71,5004	-107,0
      40,717	     71,2219	-107,2	     71,7686	-107,0
     40,7199	     71,2808	-106,8	     71,9569	-107,3
     40,7229	     71,4416	-107,1	     71,9469	-106,8
     40,7258	     71,5777	-107,3	     72,4143	-106,9
     40,7287	     71,7801	-106,7	     72,2072	-106,9
     40,7317	     72,0146	-107,1	      72,553	-106,7
     40,7346	     71,9092	-107,2	     72,6582	-106,8
     40,7375	     72,1497	-106,9	     72,6431	-106,7
     40,7405	     72,2295	-107,2	      72,989	-106,8
     40,7434	     72,4894	-107,0	     73,0256	-106,6
     40,7463	     72,4231	-106,7	     73,1638	-107,1
     40,7493	     72,6536	-106,8	      73,446	-106,4
     40,7522	     72,8134	-106,8	     73,4882	-106,5
     40,7551	     73,0152	-106,7	      73,584	-106,6
     40,7581	     73,0662	-106,9	     73,7028	-106,5
      40,761	     73,1945	-106,9	     74,0342	-106,5
     40,7639	     73,3687	-106,7	     74,1582	-106,4
     40,7669	     73,5186	-106,4	     74,0382	-106,7
     40,7698	     73,7343	-106,8	     74,3117	-106,3
     40,7727	     73,8613	-106,4	     74,5975	-106,6
     40,7757	     74,0309	-106,5	       74,71	-106,3
     40,7786	     74,0999	-106,4	     74,6494	-106,3
     40,7815	      74,303	-106,5	     74,9451	-106,6
     40,7845	     74,4747	-106,4	     75,1529	-106,7
     40,7874	     74,5404	-106,6	      75,272	-106,2
     40,7903	     74,8741	-106,6	      75,432	-106,7
     40,7933	     74,8689	-106,5	     75,7191	-106,6
     40,7962	     75,1226	-106,3	     75,7485	-106,7
     40,7991	     75,0795	-106,3	     75,9049	-106,1
     40,8021	     75,3597	-106,2	     76,2469	-106,3
      40,805	     75,5689	-106,4	     76,0834	-106,4
     40,8079	     75,6397	-106,7	     76,4876	-106,2
     40,8109	     75,9178	-106,3	     76,5931	-106,1
     40,8138	     75,8958	-106,5	     76,6265	-106,3
     40,8167	     76,1742	-106,5	     76,9284	-105,9
     40,8196	     76,3684	-106,4	     77,0248	-106,3
     40,8226	     76,5281	-106,2	      77,316	-106,2
     40,8255	     76,7454	-106,4	     77,3248	-106,1
     40,8284	     76,7783	-106,5	     77,6624	-105,9
     40,8314	     77,0078	-106,0	        77,6	-106,1
     40,8343	     77,1753	-106,1	     77,9716	-105,8
     40,8372	     77,1905	-106,4	     78,2919	-105,8
     40,8402	     77,5016	-105,7	     78,2994	-106,0
     40,8431	     77,6608	-106,0	     78,4194	-106,4
      40,846	     77,7594	-106,0	     78,6681	-106,1
      40,849	     77,9824	-106,0	     78,5262	-106,2
     40,8519	     78,1704	-105,8	     79,0347	-106,2
     40,8548	     78,3435	-106,0	     79,0941	-105,9
     40,8578	     78,3511	-106,1	     79,3272	-105,7
     40,8607	     78,6326	-106,0	     79,4016	-105,7
     40,8636	     78,8825	-105,9	     79,7753	-105,9
     40,8666	     78,9842	-105,7	     79,7903	-105,3
     40,8695	     79,2162	-105,9	     79,8417	-105,5
     40,8724	     79,3254	-106,1	     80,1871	-105,8
     40,8754	     79,5402	-106,0	     80,3332	-105,9
     40,8783	     79,6859	-106,3	     80,6219	-105,4
     40,8812	     79,9021	-105,8	     80,6517	-105,7
     40,8842	     80,1625	-106,0	     80,8583	-105,8
     40,8871	     80,1915	-105,8	     81,2176	-105,8
       40,89	     80,2647	-105,6	     81,1075	-105,7
      40,893	     80,7355	-105,8	     81,5578	-105,9
     40,8959	     80,7071	-105,8	     81,6222	-105,5
     40,8988	     80,8842	-105,5	     81,8549	-105,6
     40,9018	     81,1961	-105,3	     82,0637	-105,1
     40,9047	     81,1294	-105,5	     82,2111	-105,6
     40,9076	     81,4296	-105,4	     82,3878	-105,2
     40,9106	     81,7182	-105,4	     82,7351	-105,2
     40,9135	     81,7806	-105,6	     82,6425	-105,3
     40,9164	     82,1222	-105,8	     83,0787	-105,6
     40,9194	     82,2475	-105,8	     83,2024	-105,0
     40,9223	     82,3853	-105,2	      83,278	-105,3
     40,9252	     82,6864	-105,7	     83,5127	-105,5
     40,9282	     82,7305	-105,6	     83,7498	-105,4
     40,9311	     82,9663	-105,2	     84,0597	-105,2
      40,934	     83,0167	-105,1	     84,2457	-105,3
      40,937	     83,1927	-105,3	     84,2702	-105,4
     40,9399	     83,4781	-104,9	     84,4215	-105,0
     40,9428	     83,7494	-105,0	     85,0472	-105,3
     40,9457	     83,9076	-105,1	     84,9682	-104,9
     40,9487	      84,142	-105,4	      84,899	-105,1
     40,9516	     84,4211	-104,8	     85,2694	-105,2
     40,9545	     84,6059	-105,0	      85,658	-104,8
     40,9575	     84,7229	-105,5	     85,6703	-105,0
     40,9604	     84,9527	-105,2	     85,9182	-105,3
     40,9633	     85,0369	-105,2	     86,1513	-105,0
     40,9663	      85,443	-105,4	     86,4382	-104,7
     40,9692	     85,5773	-105,3	      86,541	-105,0
     40,9721	      85,604	-104,9	      86,783	-105,1
     40,9751	     85,9633	-104,9	     87,0526	-104,3
      40,978	     86,2207	-105,1	     87,1905	-104,4
     40,9809	     86,2877	-104,8	     87,3924	-104,6
     40,9839	     86,6804	-104,7	     87,5242	-104,4
     40,9868	      86,864	-104,6	     87,9358	-104,6
     40,9897	     87,0386	-104,8	     88,0369	-104,5
     40,9927	      87,226	-104,8	     88,2305	-104,6
     40,9956	     87,5108	-104,7	     88,6182	-104,5
     40,9985	     87,5605	-104,7	     88,7597	-104,5
     41,0015	     87,8256	-104,8	     89,0775	-104,5
     41,0044	     88,1267	-104,5	     89,2884	-104,5
     41,0073	     88,2349	-104,6	      89,409	-104,4
     41,0103	      88,404	-104,6	     89,6459	-104,2
     41,0132	     88,6193	-104,4	     89,9198	-104,1
     41,0161	     89,0655	-104,2	     90,1585	-104,5
     41,0191	     89,1368	-104,2	     90,4865	-104,7
      41,022	     89,4591	-104,5	     90,5321	-104,2
     41,0249	      89,683	-104,9	     90,5765	-104,0
     41,0279	     89,9452	-104,2	     91,2086	-104,6
     41,0308	     90,0842	-104,6	     91,4874	-104,0
     41,0337	     90,2951	-104,4	     91,5616	-103,7
     41,0367	     90,5202	-104,7	     91,7349	-104,0
     41,0396	     90,5805	-104,2	     91,9596	-104,2
     41,0425	      91,019	-104,4	     92,4043	-103,9
     41,0455	     91,2688	-104,4	     92,5888	-103,8
     41,0484	     91,4012	-104,3	     92,7698	-103,9
     41,0513	     91,6438	-104,1	     93,0626	-104,3
     41,0543	     91,9639	-104,2	     93,3734	-104,2
     41,0572	     92,1914	-104,2	     93,6132	-103,7
     41,0601	     92,4439	-104,4	     93,6161	-103,4
      41,063	     92,5923	-104,2	     94,0495	-103,6
      41,066	     92,8854	-103,9	     94,4507	-103,8
     41,0689	     93,2121	-103,7	     94,6727	-103,6
     41,0718	     93,3516	-103,9	     94,8894	-103,6
     41,0748	     93,6609	-103,5	     95,0831	-103,8
     41,0777	     94,0931	-103,6	     95,5716	-103,9
     41,0806	     94,1804	-103,9	     95,7594	-103,6
     41,0836	     94,3594	-104,1	     95,9294	-103,2
     41,0865	      94,793	-104,1	     96,1373	-103,2
     41,0894	     94,8904	-103,7	      96,455	-103,4
     41,0924	     95,3379	-103,7	      96,807	-103,5
     41,0953	      95,477	-103,5	     97,0401	-103,2
     41,0982	     95,7687	-103,5	     97,1421	-103,3
     41,1012	     96,0604	-103,5	     97,6616	-103,2
     41,1041	     96,4045	-103,5	     97,7496	-103,2
      41,107	     96,5231	-103,6	     98,2719	-103,0
       41,11	     96,8868	-103,6	     98,4192	-102,6
     41,1129	     96,9088	-103,5	     98,5553	-103,0
     41,1158	     97,4252	-103,2	      99,063	-103,1
     41,1188	     97,5967	-103,2	     99,2022	-103,0
     41,1217	     97,8793	-103,3	     99,4055	-103,1
     41,1246	     98,1818	-103,0	     99,9393	-102,9
     41,1276	      98,304	-102,9	     100,121	-102,7
     41,1305	     98,7213	-103,3	      100,38	-102,9
     41,1334	      98,883	-103,3	     100,587	-102,6
     41,1364	      99,302	-103,3	         101	-102,7
     41,1393	     99,5446	-103,0	     101,352	-102,7
     41,1422	     99,7464	-102,7	     101,816	-102,7
     41,1452	     100,187	-102,7	     101,939	-102,6
     41,1481	     100,369	-103,0	      102,26	-102,4
      41,151	     100,675	-102,5	     102,725	-102,1
      41,154	     101,231	-102,7	     102,824	-102,2
     41,1569	     101,289	-103,0	      103,13	-102,3
     41,1598	     101,631	-103,0	     103,621	-102,7
     41,1628	     102,197	-102,7	     103,936	-102,4
     41,1657	     102,348	-102,8	     104,243	-102,2
     41,1686	     102,493	-102,4	     104,497	-102,1
     41,1716	     102,767	-102,5	     104,923	-102,3
     41,1745	     103,124	-102,8	     105,087	-101,9
     41,1774	     103,602	-102,4	      105,62	-102,1
     41,1804	     103,873	-102,6	     105,903	-102,1
     41,1833	     104,109	-102,3	     106,013	-102,2
     41,1862	     104,383	-102,1	     106,542	-102,4
     41,1891	     104,853	-102,2	     106,959	-102,0
     41,1921	     105,088	-102,0	       107,1	-101,6
      41,195	     105,374	-101,8	      107,58	-101,8
     41,1979	     105,801	-102,3	     107,778	-101,8
     41,2009	     106,257	-102,2	     108,265	-102,1
     41,2038	     106,373	-102,3	     108,752	-101,9
     41,2067	     106,823	-102,1	     109,083	-101,6
     41,2097	     106,885	-101,8	     109,443	-101,5
     41,2126	     107,396	-101,8	     109,874	-101,5
     41,2155	     107,905	-101,8	      110,21	-101,6
     41,2185	     108,201	-101,9	     110,556	-101,8
     41,2214	     108,556	-101,8	     111,019	-101,3
     41,2243	     108,993	-101,6	     111,449	-101,3
     41,2273	     109,245	-102,0	     111,775	-101,0
     41,2302	     109,545	-101,7	     112,102	-101,0
     41,2331	     109,847	-101,5	      112,35	-101,4
     41,2361	     110,249	-101,5	     112,893	-100,8
      41,239	     110,796	-101,5	      113,28	-100,9
     41,2419	     111,222	-101,7	     113,659	-101,1
     41,2449	     111,517	-101,7	     114,018	-100,7
     41,2478	      111,69	-101,2	     114,592	-100,8
     41,2507	     112,175	-101,2	     114,937	-100,7
     41,2537	     112,713	-101,3	     115,182	-100,6
     41,2566	     113,016	-101,4	     115,727	-100,8
     41,2595	      113,36	-101,4	     116,166	-100,3
     41,2625	     113,746	-101,3	     116,755	-100,7
     41,2654	     114,291	-101,1	     116,953	-100,5
     41,2683	     114,629	-100,7	     117,482	-100,5
     41,2713	     115,165	-100,8	     117,942	-100,2
     41,2742	     115,504	-101,1	     118,349	-100,5
     41,2771	     115,878	-100,7	     118,874	-100,5
     41,2801	     116,393	-100,7	     119,569	-100,2
      41,283	     116,745	-100,6	     119,849	-99,9
     41,2859	     117,207	-100,4	      120,17	-99,7
     41,2889	     117,583	-100,6	     120,778	-99,9
     41,2918	     117,954	-100,3	     121,278	-100,0
     41,2947	     118,448	-100,4	     121,683	-99,7
     41,2977	     118,701	-100,5	     122,086	-99,8
     41,3006	     119,402	-100,5	      122,68	-99,4
     41,3035	      119,77	-100,5	     123,062	-99,2
     41,3064	      120,14	-100,2	     123,418	-99,7
     41,3094	     120,684	-100,2	     124,157	-99,7
     41,3123	     121,161	-100,2	     124,658	-99,6
     41,3153	       121,8	-100,0	     125,254	-99,3
     41,3182	     122,002	-100,1	     125,924	-99,2
     41,3211	      122,42	-99,8	     126,203	-99,1
      41,324	     123,063	-99,9	      126,64	-99,4
      41,327	     123,571	-99,2	     127,322	-99,3
     41,3299	     124,069	-99,4	     128,046	-99,0
     41,3328	     124,615	-99,6	     128,385	-99,1
     41,3358	     125,066	-99,5	     128,878	-98,4
     41,3387	       125,4	-99,5	      129,46	-98,7
     41,3416	     125,946	-99,3	     130,041	-98,4
     41,3446	     126,497	-99,2	     130,597	-98,3
     41,3475	     127,042	-99,2	     131,509	-98,4
     41,3504	     127,772	-99,3	     132,025	-98,1
     41,3534	     128,436	-99,3	     132,544	-98,0
     41,3563	     128,792	-98,9	     133,141	-98,2
     41,3592	     129,235	-98,9	     133,844	-97,9
     41,3622	     129,733	-98,9	     134,448	-97,7
     41,3651	     130,495	-98,8	     135,195	-97,7
      41,368	     130,883	-98,8	     135,892	-97,6
      41,371	     131,525	-98,6	      136,69	-97,7
     41,3739	     132,072	-98,6	      137,27	-97,3
     41,3768	     132,535	-98,2	     137,831	-97,1
     41,3798	     133,265	-98,3	     138,793	-97,4
     41,3827	     133,752	-98,0	     139,389	-97,4
     41,3856	     134,411	-98,1	     140,057	-97,5
     41,3886	     135,098	-97,9	     140,947	-97,0
     41,3915	     135,819	-98,2	      142,12	-96,5
     41,3944	     136,503	-97,6	     143,054	-96,4
     41,3974	     137,159	-97,7	     143,923	-96,4
     41,4003	     137,496	-97,4	     144,473	-96,2
     41,4032	     138,209	-97,1	     144,372	-96,3
     41,4062	     139,009	-97,4	     147,927	-97,3
     41,4091	     139,534	-97,4	     159,943	-98,4
      41,412	     140,258	-97,3	     182,966	-97,9
      41,415	     140,898	-97,0	     218,698	-93,9
     41,4179	     141,741	-97,1	     250,034	-88,7
     41,4208	     142,276	-96,8	     278,642	-82,7
     41,4238	     143,063	-97,0	     302,889	-77,1
     41,4267	     143,975	-96,7	     323,608	-71,9
     41,4296	     144,578	-96,6	     342,634	-66,2
     41,4326	      145,15	-96,2	     354,874	-62,1
     41,4355	     146,106	-96,0	     365,395	-58,5
     41,4384	     146,898	-96,1	     373,709	-55,8
     41,4413	     147,928	-96,3	     380,669	-53,4
     41,4443	     148,644	-96,4	     386,313	-50,8
     41,4472	     149,431	-95,8	     392,086	-48,5
     41,4501	     150,321	-95,4	     395,884	-46,4
     41,4531	     151,136	-95,7	     399,255	-45,0
      41,456	     151,775	-95,5	     402,104	-43,6
     41,4589	     152,812	-95,5	     405,047	-42,4
     41,4619	     153,674	-95,4	     407,238	-40,9
     41,4648	     154,532	-95,1	     409,012	-39,7
     41,4677	     155,422	-94,5	     410,786	-38,8
     41,4707	     156,497	-94,7	     412,245	-37,7
     41,4736	     157,431	-94,5	     413,721	-36,6
     41,4765	     158,275	-94,3	     414,852	-35,4
     41,4795	     159,197	-94,1	     416,037	-34,8
     41,4824	     160,243	-94,3	      416,88	-34,2
     41,4853	     161,319	-94,1	     417,628	-33,2
     41,4883	     162,355	-93,8	     418,409	-32,4
     41,4912	     163,461	-93,4	     419,115	-31,5
     41,4941	      164,62	-93,2	     419,788	-31,1
     41,4971	     165,936	-93,2	     420,079	-30,5
        41,5	     167,084	-93,4	     420,429	-29,6
     41,5029	     168,063	-93,0	     420,642	-29,3
     41,5059	     169,228	-92,8	     420,784	-28,9
     41,5088	     170,481	-92,3	      420,94	-28,6
     41,5117	     171,739	-92,5	      421,17	-28,2
     41,5147	     172,963	-92,1	     421,205	-27,6
     41,5176	     174,705	-91,9	      420,91	-27,5
     41,5205	     175,921	-91,6	      420,01	-26,9
     41,5235	     177,277	-91,5	     419,952	-26,8
     41,5264	     179,012	-91,4	     420,175	-25,9
     41,5293	     180,254	-91,0	      420,46	-25,5
     41,5323	     181,773	-90,7	     420,592	-25,4
     41,5352	     183,311	-89,8	     420,677	-24,8
     41,5381	     185,053	-90,0	     420,382	-24,3
     41,5411	     186,687	-89,7	     420,311	-23,8
      41,544	     188,818	-89,6	     420,001	-23,3
     41,5469	     190,662	-89,2	     419,975	-23,1
     41,5499	     192,643	-88,9	     419,673	-22,9
     41,5528	     194,676	-88,7	      419,64	-22,4
     41,5557	     196,664	-88,1	     419,729	-22,0
     41,5587	     199,269	-87,2	     419,598	-21,9
     41,5616	      201,32	-86,9	     419,315	-21,3
     41,5645	     203,642	-86,7	     418,994	-20,6
     41,5674	     206,474	-86,5	     418,996	-20,3
     41,5704	      208,97	-85,9	     418,948	-20,2
     41,5733	     211,732	-85,2	     418,791	-19,9
     41,5762	     214,966	-84,8	     418,606	-19,6
     41,5792	     218,581	-84,0	     418,246	-19,2
     41,5821	     221,797	-83,1	     417,939	-19,0
      41,585	      225,38	-82,3	     417,647	-18,9
