X-Data [Hz]	Piezo (M - Filtered) [mV]	Phase [Deg]	Piezo (M - Filtered) [mV]	Phase [Deg]	
	002: [07-09-24 17:43]		003: [07-09-24 17:46]	
        41,5	     733,554	-73,5	     756,068	-75,7
      41,502	      749,59	-74,8	     746,537	-76,2
     41,5039	     753,704	-75,8	     753,345	-78,6
     41,5059	     748,955	-75,1	     760,323	-74,9
     41,5078	     748,965	-75,2	     765,297	-76,9
     41,5098	     750,651	-71,6	     755,094	-74,5
     41,5117	     768,752	-77,0	     757,884	-76,8
     41,5137	      763,23	-77,2	     755,141	-73,3
     41,5156	     760,861	-75,0	      760,06	-75,6
     41,5176	     754,362	-75,2	     769,875	-72,7
     41,5196	      768,65	-75,1	     767,584	-70,5
     41,5215	     767,677	-77,2	     761,307	-74,3
     41,5235	     761,661	-73,9	       762,2	-74,5
     41,5254	     774,951	-75,7	     763,742	-75,1
     41,5274	     771,973	-73,5	     776,928	-77,9
     41,5293	     767,229	-74,3	     776,488	-74,1
     41,5313	     772,668	-75,3	     767,429	-75,9
     41,5332	     778,178	-72,6	     770,209	-74,0
     41,5352	       772,8	-77,2	      777,23	-76,8
     41,5371	     772,785	-73,4	     779,526	-76,2
     41,5391	     780,747	-71,0	     767,336	-74,2
     41,5411	     776,714	-75,8	     770,962	-77,2
      41,543	     770,309	-73,1	     783,961	-73,7
      41,545	     773,075	-76,5	      783,61	-74,4
     41,5469	     778,833	-75,9	     778,602	-75,2
     41,5489	     786,757	-73,8	     778,142	-73,5
     41,5508	     777,824	-73,5	     779,172	-76,4
     41,5528	     781,164	-72,8	     776,869	-73,7
     41,5547	     786,396	-75,4	     785,582	-71,8
     41,5567	     788,816	-73,9	     796,609	-73,8
     41,5587	     783,117	-75,2	     781,344	-71,2
     41,5606	     795,672	-71,8	     790,833	-76,7
     41,5626	     789,374	-71,3	     786,737	-73,7
     41,5645	     800,264	-76,4	     792,417	-74,5
     41,5665	     793,282	-74,0	     793,911	-75,4
     41,5684	     792,835	-77,0	     799,208	-73,0
     41,5704	     794,808	-75,4	     802,028	-78,0
     41,5723	     797,628	-73,4	     793,574	-71,9
     41,5743	     809,202	-74,6	      796,63	-75,5
     41,5762	     793,232	-72,8	     798,217	-73,8
     41,5782	     800,496	-75,3	     800,088	-72,7
     41,5802	     808,527	-71,7	     802,979	-73,8
     41,5821	       811,3	-72,2	     812,445	-73,6
     41,5841	     810,121	-74,2	     814,256	-76,8
      41,586	     795,555	-72,8	      806,98	-74,9
      41,588	     801,522	-76,9	     795,573	-73,2
     41,5899	     810,639	-73,9	     803,714	-75,5
     41,5919	     822,335	-74,3	     817,199	-73,6
     41,5938	     822,514	-75,3	     812,505	-74,8
     41,5958	      818,28	-71,4	     820,889	-73,3
     41,5978	     810,585	-75,5	     810,761	-72,3
     41,5997	     809,755	-72,6	     807,392	-73,3
     41,6017	     821,027	-72,8	     807,597	-72,2
     41,6036	     816,517	-74,0	     825,327	-75,8
     41,6056	     824,775	-70,9	     831,867	-76,5
     41,6075	     823,902	-73,5	     824,805	-75,0
     41,6095	     804,996	-73,1	     822,641	-76,2
     41,6114	     817,835	-70,8	     821,138	-70,6
     41,6134	     831,895	-75,5	     822,655	-74,4
     41,6153	      841,96	-75,0	     834,687	-73,2
     41,6173	     834,571	-74,4	     838,979	-72,4
     41,6193	     830,754	-72,0	     823,638	-73,8
     41,6212	     832,344	-70,4	     824,343	-72,7
     41,6232	     824,119	-75,5	     835,768	-74,5
     41,6251	     821,136	-72,8	     839,533	-74,3
     41,6271	     839,878	-74,9	     836,065	-73,1
      41,629	     843,788	-76,3	     838,132	-75,8
      41,631	     840,908	-72,0	     829,782	-75,1
     41,6329	      843,07	-73,7	     834,275	-74,2
     41,6349	      847,24	-71,6	     838,561	-76,9
     41,6369	     849,898	-75,6	     832,582	-71,1
     41,6388	     848,955	-73,5	     842,157	-70,6
     41,6408	     846,726	-71,1	     846,926	-71,2
     41,6427	     848,737	-72,3	     841,969	-70,8
     41,6447	     850,967	-70,4	      854,67	-75,8
     41,6466	     853,653	-76,1	     854,596	-73,3
     41,6486	     849,596	-74,3	     850,482	-74,3
     41,6505	     846,261	-73,7	     857,167	-70,8
     41,6525	     850,984	-75,3	     856,325	-70,8
     41,6544	     857,342	-72,9	     858,692	-74,8
     41,6564	     861,705	-73,2	      859,97	-71,6
     41,6584	     860,594	-73,3	     855,347	-72,2
     41,6603	     863,746	-73,2	     844,754	-71,7
     41,6623	     862,122	-73,8	     845,976	-71,6
     41,6642	     854,052	-72,5	     865,706	-75,7
     41,6662	     868,651	-71,2	      875,21	-72,8
     41,6681	     864,628	-72,2	     862,641	-72,1
     41,6701	     871,612	-71,9	     859,291	-75,6
      41,672	      871,15	-75,2	     858,446	-71,4
      41,674	     874,794	-74,2	     866,172	-73,8
      41,676	     871,567	-73,5	     879,119	-70,4
     41,6779	     877,257	-75,9	     873,161	-70,5
     41,6799	     870,856	-68,0	     883,013	-74,7
     41,6818	     879,653	-71,6	     884,176	-72,1
     41,6838	     875,134	-73,2	     883,292	-73,4
     41,6857	     872,952	-71,7	     885,559	-73,0
     41,6877	     879,014	-74,2	     878,077	-70,3
     41,6896	     879,405	-73,1	     875,887	-73,3
     41,6916	     891,877	-74,2	     877,473	-70,3
     41,6936	     885,482	-71,8	     877,686	-71,4
     41,6955	     888,371	-69,1	     889,537	-74,2
     41,6975	     885,543	-71,1	     899,925	-72,0
     41,6994	     896,649	-72,8	     891,382	-72,5
     41,7014	     894,929	-71,3	     889,892	-71,4
     41,7033	     902,971	-74,1	     892,318	-70,9
     41,7053	     900,782	-72,3	     904,753	-74,2
     41,7072	     895,572	-71,7	     896,882	-70,6
     41,7092	     898,611	-71,9	     888,365	-72,7
     41,7111	     893,017	-70,0	      899,38	-73,5
     41,7131	      897,44	-72,8	     897,721	-68,8
     41,7151	     897,434	-71,1	     890,363	-71,8
      41,717	     901,855	-70,5	     900,814	-70,9
      41,719	     906,491	-72,0	     908,631	-69,9
     41,7209	     911,378	-71,0	     907,879	-74,9
     41,7229	     915,898	-72,9	     917,763	-71,1
     41,7248	     915,052	-72,6	     920,166	-73,5
     41,7268	     915,537	-73,4	     916,914	-72,5
     41,7287	     912,294	-74,4	      913,58	-70,0
     41,7307	     925,124	-67,8	     909,704	-70,7
     41,7327	      926,69	-69,0	     919,134	-70,6
     41,7346	     919,789	-72,0	     917,741	-72,6
     41,7366	     917,102	-69,5	     919,604	-72,9
     41,7385	     918,096	-73,4	     923,819	-70,8
     41,7405	     916,102	-72,0	     934,559	-70,2
     41,7424	     930,319	-70,0	     926,917	-69,6
     41,7444	     934,316	-72,5	      928,48	-70,5
     41,7463	     922,133	-69,4	     937,872	-73,2
     41,7483	     927,108	-68,3	     932,624	-72,4
     41,7502	     934,536	-71,9	     939,164	-73,2
     41,7522	     936,971	-70,7	     941,966	-75,2
     41,7542	     949,326	-74,5	     945,437	-72,0
     41,7561	     945,952	-72,9	     931,047	-70,8
     41,7581	     938,819	-70,7	     937,749	-72,4
       41,76	     935,466	-71,0	      944,86	-69,8
      41,762	     937,667	-71,2	     940,067	-69,5
     41,7639	     933,508	-68,4	     941,484	-71,2
     41,7659	     948,616	-72,3	     951,113	-69,4
     41,7678	     960,131	-69,9	     952,276	-71,9
     41,7698	     952,255	-70,7	     953,132	-69,5
     41,7718	     955,263	-71,3	     955,747	-70,3
     41,7737	     954,614	-71,1	      958,31	-71,9
     41,7757	     959,416	-70,9	     959,686	-71,1
     41,7776	      958,42	-71,2	     960,184	-72,9
     41,7796	     955,843	-69,6	     959,065	-68,9
     41,7815	     954,036	-70,9	     961,317	-69,5
     41,7835	     966,657	-70,0	     964,331	-71,0
     41,7854	     972,629	-70,6	     969,604	-70,4
     41,7874	     970,801	-71,3	     971,574	-68,7
     41,7893	     968,652	-69,0	     969,639	-71,5
     41,7913	         977	-70,6	     965,472	-69,9
     41,7933	     969,898	-72,9	     974,064	-71,0
     41,7952	     973,737	-70,1	     979,487	-71,3
     41,7972	     979,087	-71,8	     968,911	-69,3
     41,7991	     973,937	-69,5	     978,047	-68,4
     41,8011	     979,522	-68,8	     979,627	-70,1
      41,803	     978,851	-69,8	     981,649	-65,8
      41,805	     991,705	-69,2	      990,49	-71,7
     41,8069	     986,139	-69,1	     989,616	-72,6
     41,8089	     984,844	-72,4	     1001,85	-69,4
     41,8109	     983,813	-70,0	     996,556	-71,2
     41,8128	     986,322	-69,0	     988,843	-68,4
     41,8148	     991,554	-69,7	     990,834	-68,2
     41,8167	     1000,03	-68,2	      1003,2	-70,3
     41,8187	     1011,79	-70,3	     1001,94	-67,7
     41,8206	      998,97	-70,6	     1005,46	-71,7
     41,8226	     1000,16	-67,8	      1003,4	-70,9
     41,8245	     1000,57	-70,9	     998,426	-69,2
     41,8265	     1002,88	-67,5	     1003,53	-71,2
     41,8284	     1006,56	-69,5	     1004,94	-70,2
     41,8304	     1011,95	-69,3	     1006,86	-65,6
     41,8324	     1016,47	-67,5	     1021,71	-70,5
     41,8343	     1021,24	-66,3	     1023,31	-69,5
     41,8363	      1017,8	-69,2	     1017,13	-69,5
     41,8382	     1002,09	-67,4	     1024,66	-72,4
     41,8402	      1008,4	-71,3	     1014,75	-68,1
     41,8421	     1019,29	-70,2	     1017,94	-70,0
     41,8441	     1029,26	-68,6	     1031,97	-68,9
      41,846	     1028,15	-71,4	     1036,55	-67,5
      41,848	     1018,14	-67,1	     1039,55	-70,2
       41,85	     1029,34	-66,3	        1037	-69,7
     41,8519	     1038,85	-69,4	     1035,24	-67,6
     41,8539	      1035,1	-68,2	     1038,92	-70,4
     41,8558	     1049,68	-70,1	     1044,47	-71,6
     41,8578	     1039,24	-71,1	     1035,94	-68,1
     41,8597	     1041,03	-69,1	     1035,13	-68,8
     41,8617	     1054,65	-69,4	     1051,48	-68,8
     41,8636	     1051,92	-66,9	     1054,66	-65,9
     41,8656	     1047,33	-66,7	     1062,36	-69,3
     41,8675	     1053,01	-69,5	     1051,66	-68,8
     41,8695	        1052	-70,1	     1051,48	-68,2
     41,8715	     1049,27	-68,2	     1056,72	-70,2
     41,8734	     1053,03	-69,2	     1054,37	-66,1
     41,8754	     1059,38	-66,9	     1055,52	-68,0
     41,8773	     1067,12	-67,4	     1064,23	-69,3
     41,8793	        1075	-69,5	     1072,73	-66,7
     41,8812	     1072,87	-66,8	     1073,38	-68,5
     41,8832	     1071,07	-65,4	      1077,3	-68,9
     41,8851	     1066,81	-69,0	     1076,88	-67,1
     41,8871	     1068,98	-67,8	      1079,6	-69,5
     41,8891	     1082,01	-68,0	     1082,78	-67,9
      41,891	     1074,11	-70,4	     1082,45	-67,5
      41,893	      1078,8	-67,1	     1080,17	-69,6
     41,8949	     1083,56	-67,4	     1075,22	-69,5
     41,8969	     1084,84	-67,2	     1088,03	-66,6
     41,8988	     1089,52	-67,7	     1098,24	-67,5
     41,9008	      1088,1	-69,7	      1103,6	-67,5
     41,9027	     1085,03	-69,5	     1096,41	-65,4
     41,9047	     1086,22	-66,2	     1091,04	-67,1
     41,9066	     1092,93	-66,9	     1099,42	-68,4
     41,9086	     1098,73	-65,7	     1091,13	-64,3
     41,9106	     1100,34	-66,2	     1096,22	-70,2
     41,9125	     1105,79	-69,2	     1111,17	-68,2
     41,9145	     1110,83	-69,5	     1111,13	-64,8
     41,9164	     1103,62	-65,5	     1111,02	-67,8
     41,9184	     1107,82	-65,9	     1118,03	-66,0
     41,9203	     1109,32	-64,1	     1118,53	-66,5
     41,9223	     1113,44	-63,9	     1124,03	-68,2
     41,9242	     1125,69	-70,2	     1127,07	-67,9
     41,9262	     1115,38	-69,2	     1122,48	-66,6
     41,9282	     1115,31	-67,2	     1120,95	-69,5
     41,9301	     1132,26	-67,6	     1131,53	-69,7
     41,9321	     1124,88	-61,8	     1129,16	-64,5
      41,934	     1122,11	-65,1	     1123,76	-66,7
      41,936	     1132,71	-66,2	     1130,13	-64,6
     41,9379	     1130,42	-63,6	     1138,11	-65,6
     41,9399	     1136,26	-68,0	     1150,61	-68,0
     41,9418	     1136,62	-67,3	     1154,01	-68,0
     41,9438	     1141,56	-66,0	     1148,52	-67,4
     41,9457	     1148,77	-68,0	     1157,18	-68,4
     41,9477	     1157,44	-66,3	     1157,91	-65,9
     41,9497	     1148,84	-64,1	     1165,38	-63,7
     41,9516	     1157,21	-64,1	     1163,56	-67,4
     41,9536	     1154,09	-65,2	     1155,67	-64,5
     41,9555	     1154,43	-65,1	     1156,75	-66,9
     41,9575	     1154,92	-67,2	     1163,46	-68,9
     41,9594	      1154,8	-67,0	     1175,21	-66,0
     41,9614	     1156,61	-64,2	     1175,19	-65,1
     41,9633	     1171,81	-66,1	     1186,33	-67,0
     41,9653	     1170,64	-66,6	     1188,37	-65,4
     41,9673	     1175,12	-63,6	     1180,55	-65,3
     41,9692	     1173,57	-66,2	     1177,13	-67,2
     41,9712	     1184,41	-65,3	     1166,14	-62,4
     41,9731	     1188,75	-63,9	     1172,18	-65,2
     41,9751	     1190,61	-65,1	     1190,15	-66,4
      41,977	     1190,49	-65,9	     1206,69	-63,7
      41,979	     1191,11	-64,5	     1207,37	-63,0
     41,9809	     1192,76	-68,3	     1209,94	-67,3
     41,9829	     1191,92	-67,1	     1211,81	-67,5
     41,9848	     1198,36	-63,0	     1206,61	-64,5
     41,9868	     1205,17	-65,2	     1214,87	-65,4
     41,9888	     1214,07	-61,5	     1215,22	-63,2
     41,9907	     1219,18	-61,3	     1214,44	-62,3
     41,9927	     1214,57	-63,5	      1222,9	-65,9
     41,9946	     1206,59	-64,3	     1221,17	-65,0
     41,9966	        1197	-62,9	     1226,34	-63,9
     41,9985	     1213,11	-65,3	     1226,97	-65,1
     42,0005	      1217,1	-66,7	     1231,22	-62,9
     42,0024	     1219,79	-61,7	     1236,81	-64,9
     42,0044	     1228,16	-64,1	     1238,82	-64,9
     42,0064	     1230,13	-63,3	     1236,87	-64,0
     42,0083	        1236	-61,3	     1238,64	-63,9
     42,0103	     1239,83	-65,8	      1236,3	-64,3
     42,0122	     1236,02	-65,6	     1236,31	-65,7
     42,0142	     1235,61	-63,6	     1239,27	-63,1
     42,0161	     1242,71	-64,2	     1245,17	-63,2
     42,0181	     1241,88	-63,2	     1256,07	-62,0
       42,02	      1235,3	-62,7	     1256,29	-61,6
      42,022	     1243,39	-64,5	     1267,89	-65,7
     42,0239	     1250,33	-65,5	     1281,66	-66,4
     42,0259	     1257,32	-60,7	     1270,74	-62,4
     42,0279	     1266,82	-60,7	     1271,21	-61,9
     42,0298	     1270,26	-62,3	      1268,1	-62,2
     42,0318	     1263,62	-61,1	     1273,79	-61,7
     42,0337	     1280,01	-63,7	     1281,63	-64,1
     42,0357	     1285,65	-64,6	      1282,6	-65,1
     42,0376	     1287,44	-63,9	     1296,39	-62,1
     42,0396	     1289,74	-63,1	     1299,96	-63,5
     42,0415	      1283,7	-66,2	     1302,38	-63,8
     42,0435	     1281,28	-60,9	     1297,46	-62,3
     42,0455	     1287,73	-61,9	     1300,97	-63,1
     42,0474	        1303	-61,3	     1300,09	-64,9
     42,0494	     1303,24	-61,4	     1292,33	-58,8
     42,0513	     1304,35	-62,8	     1305,88	-62,2
     42,0533	     1306,82	-63,3	      1315,2	-63,6
     42,0552	     1307,34	-60,2	     1327,65	-59,1
     42,0572	     1306,27	-61,1	     1329,43	-59,8
     42,0591	     1315,24	-64,1	     1331,54	-64,1
     42,0611	     1314,14	-62,3	     1329,77	-62,2
      42,063	     1316,26	-62,6	     1332,27	-60,4
      42,065	     1317,68	-63,2	     1328,97	-61,8
      42,067	     1332,74	-58,9	     1335,51	-63,1
     42,0689	     1325,76	-60,7	     1347,66	-61,6
     42,0709	     1327,49	-61,8	     1339,67	-63,1
     42,0728	     1331,85	-61,5	     1343,24	-60,0
     42,0748	     1334,78	-63,0	     1359,02	-59,4
     42,0767	     1341,26	-62,9	     1357,22	-61,2
     42,0787	     1339,19	-61,9	     1359,71	-62,3
     42,0806	     1347,22	-60,3	     1360,41	-59,5
     42,0826	     1350,02	-61,2	     1359,81	-61,9
     42,0846	     1356,03	-60,9	     1361,66	-62,3
     42,0865	     1364,21	-59,2	     1368,55	-58,7
     42,0885	     1381,71	-60,3	     1368,92	-59,2
     42,0904	     1376,15	-61,2	     1371,92	-62,8
     42,0924	     1367,43	-57,9	     1377,27	-63,1
     42,0943	     1375,71	-59,0	     1380,56	-61,4
     42,0963	     1376,92	-59,9	     1397,52	-61,0
     42,0982	     1374,98	-57,5	     1401,74	-59,4
     42,1002	     1374,48	-57,5	     1410,34	-58,9
     42,1021	     1377,54	-61,4	        1401	-59,3
     42,1041	     1377,01	-60,7	     1405,83	-60,6
     42,1061	     1390,85	-60,7	     1405,73	-58,5
      42,108	     1399,83	-62,8	     1408,94	-58,5
       42,11	     1410,17	-59,0	     1416,87	-61,3
     42,1119	     1411,56	-58,5	        1422	-57,9
     42,1139	     1415,72	-60,3	     1429,11	-58,7
     42,1158	     1413,05	-61,0	     1435,56	-58,6
     42,1178	     1413,81	-56,7	     1438,19	-60,3
     42,1197	     1417,36	-60,0	     1430,15	-57,7
     42,1217	     1418,92	-58,1	     1435,53	-60,8
     42,1237	     1423,74	-58,1	     1444,31	-57,7
     42,1256	     1436,74	-61,7	     1440,91	-58,7
     42,1276	     1439,51	-60,8	     1441,87	-59,6
     42,1295	     1441,35	-59,3	      1446,3	-59,8
     42,1315	     1444,57	-59,8	     1453,76	-56,7
     42,1334	     1449,06	-59,9	     1456,28	-57,8
     42,1354	     1444,44	-57,5	     1474,45	-58,0
     42,1373	     1458,54	-57,5	     1482,53	-56,8
     42,1393	     1466,11	-59,3	     1479,16	-55,4
     42,1413	     1462,84	-57,9	     1483,35	-60,2
     42,1432	     1469,87	-55,3	     1489,25	-58,9
     42,1452	     1476,78	-58,2	     1496,38	-57,4
     42,1471	     1477,85	-56,5	     1496,94	-58,4
     42,1491	     1474,71	-56,9	     1492,98	-57,8
      42,151	      1489,9	-60,5	     1501,62	-56,4
      42,153	     1494,41	-60,4	     1511,77	-57,4
     42,1549	     1497,98	-56,6	     1519,58	-58,2
     42,1569	     1500,33	-57,8	      1517,8	-56,9
     42,1588	     1501,99	-56,3	     1503,27	-56,5
     42,1608	     1501,41	-56,8	     1513,72	-56,7
     42,1628	     1508,33	-55,7	     1530,27	-54,2
     42,1647	     1512,63	-57,9	     1535,19	-54,0
     42,1667	     1518,21	-56,8	     1543,65	-57,3
     42,1686	     1523,72	-53,1	      1551,6	-57,6
     42,1706	     1529,73	-54,7	     1549,78	-56,2
     42,1725	     1521,38	-57,4	     1556,95	-56,7
     42,1745	     1526,88	-56,2	     1566,55	-57,0
     42,1764	     1538,26	-55,4	     1561,73	-55,6
     42,1784	     1547,75	-56,2	     1557,14	-58,1
     42,1804	      1544,7	-56,5	     1569,69	-58,8
     42,1823	     1553,73	-55,6	     1577,68	-53,8
     42,1843	     1561,85	-56,5	      1575,4	-54,7
     42,1862	     1573,24	-57,2	     1585,15	-56,1
     42,1882	     1584,82	-56,0	     1592,42	-55,6
     42,1901	     1590,14	-56,8	     1595,04	-55,1
     42,1921	     1590,46	-54,1	     1588,76	-54,3
      42,194	     1586,56	-53,6	     1590,51	-54,9
      42,196	     1580,87	-54,8	      1606,3	-53,4
     42,1979	     1586,71	-55,6	     1606,02	-53,5
     42,1999	      1591,2	-55,3	      1622,8	-56,7
     42,2019	     1592,11	-52,2	     1622,73	-54,3
     42,2038	     1605,74	-53,9	     1623,02	-54,6
     42,2058	     1606,22	-55,4	     1634,15	-54,7
     42,2077	     1620,16	-54,7	     1639,41	-56,3
     42,2097	     1619,86	-55,3	     1640,31	-54,8
     42,2116	     1630,06	-55,4	      1648,7	-54,1
     42,2136	     1625,56	-54,4	     1661,63	-55,6
     42,2155	     1632,44	-55,8	     1656,73	-51,5
     42,2175	     1641,53	-55,3	     1652,94	-53,3
     42,2195	        1646	-50,6	     1662,29	-55,9
     42,2214	     1658,95	-52,3	     1674,03	-53,7
     42,2234	     1651,69	-55,1	     1680,58	-50,5
     42,2253	     1652,55	-56,2	     1673,97	-52,1
     42,2273	     1656,63	-51,3	     1678,05	-53,3
     42,2292	     1659,83	-52,2	     1688,35	-51,4
     42,2312	     1668,62	-53,5	     1688,34	-51,2
     42,2331	     1668,46	-50,7	     1694,39	-53,9
     42,2351	     1677,46	-53,5	     1701,53	-54,3
      42,237	     1684,42	-53,7	     1717,09	-50,7
      42,239	     1690,47	-53,8	     1718,83	-50,2
      42,241	     1696,32	-50,4	     1725,52	-55,2
     42,2429	     1709,23	-51,4	     1732,64	-53,7
