X-Data [Hz]	Piezo (M - Filtered) [mV]	Phase [Deg]	Piezo (M - Filtered) [mV]	Phase [Deg]	
	002: [07-09-24 14:52]		003: [07-09-24 14:56]	
        40,5	     630,397	-82,1	     659,922	-82,1
     40,5029	     658,694	-80,6	     653,277	-83,6
     40,5059	     659,948	-81,3	     659,001	-78,8
     40,5088	     654,409	-80,2	      658,44	-83,1
     40,5117	     662,259	-80,3	     667,547	-83,4
     40,5147	     672,914	-83,2	     653,884	-81,7
     40,5176	     665,697	-81,2	     661,216	-82,0
     40,5205	     674,471	-82,2	     659,618	-82,0
     40,5235	     669,947	-80,1	     662,627	-80,7
     40,5264	     671,389	-79,2	     657,968	-82,4
     40,5293	     676,666	-80,1	     671,574	-79,6
     40,5323	     668,037	-79,0	     653,211	-80,7
     40,5352	     668,549	-81,4	     667,176	-79,6
     40,5381	     673,152	-81,7	     672,995	-80,8
     40,5411	     670,296	-79,7	     665,614	-83,9
      40,544	     672,091	-79,3	     663,803	-80,3
     40,5469	     681,181	-80,2	     674,321	-79,2
     40,5499	     676,289	-80,2	     672,544	-81,5
     40,5528	     676,518	-82,4	     671,454	-79,4
     40,5557	     673,862	-81,7	      670,75	-81,5
     40,5587	     675,442	-79,3	     684,322	-82,4
     40,5616	     670,464	-82,9	     669,033	-80,6
     40,5645	     679,803	-80,4	     676,644	-82,5
     40,5674	     678,463	-80,1	     682,588	-81,6
     40,5704	     673,931	-82,8	     676,125	-81,1
     40,5733	     683,227	-80,6	     680,716	-82,4
     40,5762	     686,034	-83,1	     678,136	-82,5
     40,5792	     681,942	-81,5	     681,213	-81,8
     40,5821	     687,094	-80,2	     681,377	-84,6
      40,585	     683,757	-81,0	     681,539	-79,5
      40,588	     689,987	-82,4	     688,279	-82,9
     40,5909	     692,965	-80,7	     679,775	-80,0
     40,5938	     689,362	-83,0	     685,581	-83,2
     40,5968	     690,314	-81,8	     677,978	-82,6
     40,5997	     683,238	-81,0	     689,853	-82,8
     40,6026	     696,561	-81,7	     687,511	-81,1
     40,6056	      690,82	-81,0	     680,474	-80,1
     40,6085	     694,663	-81,3	     688,769	-79,1
     40,6114	     699,394	-82,6	     695,096	-82,3
     40,6144	     687,721	-81,3	      691,74	-83,5
     40,6173	     700,225	-82,1	     692,248	-81,2
     40,6202	     696,473	-83,3	     685,553	-82,0
     40,6232	     691,056	-80,7	     697,153	-78,4
     40,6261	     698,179	-83,1	     689,351	-80,9
      40,629	     695,805	-80,7	     697,289	-82,6
      40,632	     704,177	-80,8	     699,195	-80,8
     40,6349	     709,507	-80,1	      695,57	-81,5
     40,6378	     697,814	-78,9	      704,57	-81,8
     40,6408	     706,981	-79,6	     690,312	-78,6
     40,6437	     704,744	-81,2	     704,757	-80,5
     40,6466	     703,183	-82,0	     697,732	-78,6
     40,6496	     708,652	-81,0	     709,099	-80,1
     40,6525	     702,706	-82,3	      702,13	-80,3
     40,6554	      717,82	-78,4	     699,334	-79,6
     40,6584	     705,768	-79,3	     714,032	-80,5
     40,6613	     717,734	-81,8	     711,503	-82,0
     40,6642	     704,292	-78,1	     704,943	-79,9
     40,6672	      714,76	-80,4	     709,223	-79,2
     40,6701	     716,701	-81,4	     707,486	-81,0
      40,673	     711,298	-80,4	      711,02	-80,0
      40,676	     723,381	-78,6	     710,527	-80,0
     40,6789	     715,464	-81,1	      713,31	-81,3
     40,6818	      716,59	-78,4	     713,073	-79,2
     40,6847	     717,016	-80,3	     718,277	-81,0
     40,6877	     713,496	-82,2	      720,87	-81,6
     40,6906	     724,954	-80,6	     714,006	-80,5
     40,6936	     727,749	-80,2	     720,615	-81,3
     40,6965	     719,143	-80,8	     721,746	-81,4
     40,6994	     723,748	-79,9	       716,5	-79,5
     40,7023	     716,631	-80,7	     727,987	-80,2
     40,7053	     727,032	-79,8	     723,585	-80,6
     40,7082	     722,573	-79,0	     720,262	-80,5
     40,7111	     734,572	-80,3	     720,872	-80,2
     40,7141	     726,396	-79,6	     718,505	-80,3
      40,717	     725,416	-78,7	      725,09	-79,3
     40,7199	     732,529	-79,7	      730,14	-81,6
     40,7229	     743,981	-81,9	     727,082	-79,1
     40,7258	     723,167	-81,1	     716,919	-78,5
     40,7287	     742,651	-78,7	     732,037	-80,3
     40,7317	      724,98	-80,5	     724,993	-82,2
     40,7346	     741,433	-79,3	     731,202	-81,1
     40,7375	     733,296	-79,4	     734,718	-81,1
     40,7405	     735,678	-81,9	     726,233	-80,6
     40,7434	      746,41	-82,4	     735,936	-79,5
     40,7463	      741,06	-79,5	     732,669	-81,0
     40,7493	      741,58	-82,1	     740,221	-79,9
     40,7522	     735,959	-81,6	     730,816	-79,3
     40,7551	     754,488	-79,8	     738,205	-80,3
     40,7581	     738,676	-81,3	     739,778	-81,5
      40,761	     749,815	-79,3	     736,915	-79,4
     40,7639	     746,764	-79,5	     738,452	-81,4
     40,7669	     753,401	-81,8	     753,508	-82,2
     40,7698	     752,123	-79,0	     739,961	-80,7
     40,7727	     745,495	-79,7	     747,523	-80,7
     40,7757	      744,07	-79,4	      736,82	-80,6
     40,7786	     748,598	-80,3	      753,19	-78,8
     40,7815	     749,586	-79,0	     736,616	-80,5
     40,7845	      761,92	-80,8	     754,016	-81,9
     40,7874	     753,702	-82,7	     740,003	-80,0
     40,7903	     750,492	-80,3	     751,526	-80,0
     40,7933	      760,92	-79,3	     752,525	-80,1
     40,7962	     757,986	-82,2	     756,946	-79,6
     40,7991	      747,36	-79,8	      760,62	-79,9
     40,8021	     759,567	-77,8	     750,508	-81,3
      40,805	     763,106	-81,6	     763,102	-80,2
     40,8079	     762,911	-78,4	     755,987	-79,6
     40,8109	     750,244	-79,4	     767,245	-82,0
     40,8138	     769,427	-81,3	     760,929	-81,2
     40,8167	     757,006	-80,3	     775,487	-82,4
     40,8196	     772,503	-78,9	     752,044	-81,6
     40,8226	     765,148	-80,5	     766,348	-80,9
     40,8255	     771,237	-79,6	     758,584	-78,2
     40,8284	     771,592	-79,0	     764,286	-79,6
     40,8314	     764,028	-80,4	     774,843	-80,4
     40,8343	     764,977	-80,2	       768,1	-79,5
     40,8372	      777,93	-78,2	     775,194	-80,0
     40,8402	     772,931	-77,7	     766,406	-81,9
     40,8431	     778,137	-79,9	     773,978	-78,3
      40,846	     778,846	-78,4	     770,521	-81,6
      40,849	     774,058	-77,8	     778,303	-79,8
     40,8519	     772,314	-80,9	     773,329	-79,7
     40,8548	     783,941	-79,9	     779,642	-78,1
     40,8578	     779,084	-78,6	     782,932	-80,0
     40,8607	     793,664	-80,2	     767,239	-78,5
     40,8636	     785,282	-82,4	     777,137	-77,8
     40,8666	     780,294	-80,1	     781,656	-80,0
     40,8695	     788,909	-79,9	      785,37	-78,0
     40,8724	      785,24	-80,8	     784,159	-79,0
     40,8754	     787,722	-81,6	     792,887	-80,7
     40,8783	     786,035	-78,0	     783,355	-82,0
     40,8812	     795,422	-79,9	     796,553	-80,7
     40,8842	     786,504	-79,6	     790,362	-80,9
     40,8871	     784,723	-78,6	      795,07	-81,1
       40,89	     799,292	-79,8	     794,089	-80,9
      40,893	     791,708	-78,6	     795,619	-78,9
     40,8959	     795,165	-80,1	     798,663	-79,3
     40,8988	     802,377	-78,8	     789,871	-80,0
     40,9018	     787,949	-79,2	     801,143	-78,2
     40,9047	     802,651	-79,7	     793,158	-78,0
     40,9076	     798,442	-80,2	      797,82	-79,7
     40,9106	     796,769	-78,0	     803,842	-79,3
     40,9135	      814,94	-79,4	     803,288	-77,7
     40,9164	      812,42	-79,6	     800,887	-80,3
     40,9194	     799,954	-79,6	     801,676	-81,0
     40,9223	     806,027	-79,1	     811,284	-79,9
     40,9252	      804,01	-80,7	     805,834	-79,9
     40,9282	     810,615	-79,6	      807,33	-80,0
     40,9311	     806,896	-79,0	     811,281	-79,6
      40,934	     811,085	-78,7	     814,234	-79,3
      40,937	     809,646	-80,1	     816,612	-80,0
     40,9399	     803,718	-77,5	      810,49	-79,7
     40,9428	     818,326	-79,0	     811,001	-79,8
     40,9457	     816,167	-79,4	     812,098	-79,6
     40,9487	     825,732	-79,0	     813,252	-79,8
     40,9516	     819,433	-79,2	     824,303	-80,1
     40,9545	     820,054	-78,1	     822,207	-80,6
     40,9575	      820,06	-79,5	     829,599	-79,8
     40,9604	     826,841	-78,9	      811,82	-79,6
     40,9633	     827,741	-79,0	     840,089	-78,9
     40,9663	     823,427	-78,9	     820,324	-78,1
     40,9692	     826,145	-79,8	     821,219	-81,5
     40,9721	     828,363	-78,8	     834,594	-78,2
     40,9751	     832,135	-77,9	     829,489	-80,3
      40,978	      827,41	-79,4	     836,198	-77,9
     40,9809	      828,62	-78,4	     831,297	-80,1
     40,9839	     836,867	-77,9	     842,424	-79,2
     40,9868	     834,559	-77,8	     829,113	-77,5
     40,9897	     836,055	-77,1	     833,844	-78,9
     40,9927	     839,622	-77,1	     846,521	-80,2
     40,9956	     841,013	-75,9	     835,602	-78,4
     40,9985	     842,928	-77,1	     840,333	-77,6
     41,0015	     847,676	-80,6	     837,046	-78,8
     41,0044	     844,505	-79,2	     848,832	-77,7
     41,0073	     851,399	-77,6	     838,874	-77,6
     41,0103	     838,157	-80,0	     839,644	-76,9
     41,0132	     845,607	-80,1	     848,976	-80,3
     41,0161	     857,743	-77,4	     838,062	-76,4
     41,0191	     854,539	-77,9	     855,865	-79,6
      41,022	     847,025	-79,7	     849,482	-79,9
     41,0249	     852,814	-79,1	     850,066	-81,5
     41,0279	     867,505	-78,9	     860,777	-79,6
     41,0308	     848,863	-77,7	     861,575	-79,9
     41,0337	     865,273	-78,3	     867,679	-79,6
     41,0367	     855,734	-80,2	     862,511	-78,7
     41,0396	     868,911	-80,4	     857,779	-79,2
     41,0425	     855,504	-79,1	     867,398	-77,6
     41,0455	     873,052	-80,1	     859,521	-79,8
     41,0484	     855,577	-82,0	     858,996	-80,0
     41,0513	     867,062	-77,9	     864,145	-78,9
     41,0543	     878,032	-77,2	     870,774	-77,7
     41,0572	      850,53	-76,4	     875,114	-80,7
     41,0601	     876,359	-77,9	     874,233	-80,2
      41,063	     874,215	-77,2	     878,656	-77,9
      41,066	     878,563	-76,0	     867,846	-76,3
     41,0689	      878,66	-78,3	     880,904	-81,0
     41,0718	     868,295	-78,8	     877,697	-78,0
     41,0748	     889,495	-78,8	     882,081	-77,5
     41,0777	     874,978	-78,0	     882,987	-76,4
     41,0806	     881,221	-77,5	     880,827	-78,7
     41,0836	     878,986	-77,9	     879,827	-78,7
     41,0865	     894,291	-78,3	     888,211	-78,1
     41,0894	     873,534	-76,7	     876,833	-78,3
     41,0924	     890,609	-77,6	     894,138	-79,0
     41,0953	     891,111	-78,6	     893,823	-78,3
     41,0982	     893,987	-78,6	     896,468	-77,6
     41,1012	     887,443	-78,2	     883,323	-77,1
     41,1041	     896,925	-77,4	     893,109	-77,9
      41,107	     900,281	-81,3	     900,612	-79,5
       41,11	     891,936	-78,7	      901,28	-79,3
     41,1129	      899,97	-77,6	     896,851	-77,4
     41,1158	     893,403	-76,1	     901,338	-80,3
     41,1188	     908,964	-76,1	     912,669	-79,0
     41,1217	     905,977	-78,6	     900,532	-77,2
     41,1246	     901,447	-76,0	     897,696	-76,6
     41,1276	      908,91	-77,0	     902,065	-77,6
     41,1305	     906,551	-77,4	     904,444	-77,7
     41,1334	     906,037	-78,2	     912,835	-78,0
     41,1364	     915,551	-78,4	     914,093	-76,0
     41,1393	     903,695	-76,8	     912,474	-77,8
     41,1422	     910,407	-75,2	     913,693	-78,7
     41,1452	     914,874	-76,0	     917,424	-77,9
     41,1481	     918,239	-77,7	     927,515	-76,2
      41,151	     914,992	-76,7	     904,185	-76,6
      41,154	     924,773	-76,3	     927,592	-77,4
     41,1569	     925,331	-77,9	     913,169	-78,8
     41,1598	     921,986	-77,3	     923,951	-75,7
     41,1628	     922,712	-78,0	     920,823	-78,3
     41,1657	     929,128	-76,5	     933,964	-78,7
     41,1686	     921,039	-74,8	     926,278	-79,7
     41,1716	     930,244	-76,7	     939,251	-77,8
     41,1745	     938,534	-77,6	     937,005	-77,2
     41,1774	     937,249	-77,0	     932,735	-76,8
     41,1804	     925,118	-76,9	     940,323	-77,4
     41,1833	      932,85	-75,6	     942,929	-78,6
     41,1862	     946,597	-75,6	     938,793	-75,2
     41,1891	     936,116	-76,5	     941,193	-76,0
     41,1921	     940,722	-75,6	      951,05	-77,2
      41,195	     948,923	-74,6	     947,088	-78,2
     41,1979	     941,835	-76,5	     951,721	-76,5
     41,2009	     956,035	-78,2	     944,188	-76,0
     41,2038	     945,665	-79,5	     953,714	-76,0
     41,2067	     949,547	-77,4	     947,449	-76,6
     41,2097	     950,355	-76,6	     956,026	-76,1
     41,2126	     955,286	-78,3	     960,954	-76,7
     41,2155	     962,249	-76,2	     958,008	-76,4
     41,2185	     954,549	-77,4	     966,779	-75,4
     41,2214	     963,279	-78,2	     971,419	-77,1
     41,2243	     961,332	-75,2	     968,915	-76,6
     41,2273	     966,433	-77,1	     964,808	-75,1
     41,2302	     969,089	-77,9	     961,434	-74,6
     41,2331	     958,974	-75,7	     958,681	-77,0
     41,2361	     967,373	-75,9	     975,566	-77,5
      41,239	     971,117	-74,7	     972,423	-77,2
     41,2419	     971,131	-75,1	     982,452	-76,4
     41,2449	     988,489	-78,0	      976,88	-75,3
     41,2478	     968,971	-78,5	     979,539	-75,3
     41,2507	      974,75	-75,9	     983,694	-76,5
     41,2537	     987,805	-75,9	     989,547	-75,6
     41,2566	      967,93	-74,0	     979,418	-75,4
     41,2595	     995,599	-75,3	     982,963	-77,2
     41,2625	     989,859	-78,7	     994,449	-76,3
     41,2654	     988,444	-76,7	     985,303	-76,1
     41,2683	     994,742	-76,1	     1002,34	-76,2
     41,2713	     984,285	-75,0	     1000,84	-74,9
     41,2742	     1000,37	-74,9	     990,551	-74,4
     41,2771	     1003,38	-77,5	     988,921	-76,8
     41,2801	     999,082	-76,2	     1009,84	-77,5
      41,283	     1003,52	-76,5	     1001,27	-76,7
     41,2859	        1004	-76,3	     1011,91	-76,0
     41,2889	     1001,18	-74,5	     997,612	-74,1
     41,2918	     1003,78	-77,7	     1009,32	-77,3
     41,2947	     1013,58	-78,1	     1020,39	-76,5
     41,2977	     1005,66	-76,3	      1010,6	-78,3
     41,3006	     1013,63	-75,1	     1023,72	-77,0
     41,3035	     1012,44	-75,8	     1019,15	-74,6
     41,3064	     1026,67	-77,4	     1018,41	-77,3
     41,3094	     1020,39	-76,0	     1026,58	-76,6
     41,3123	     1022,36	-76,5	     1021,64	-77,8
     41,3153	     1019,27	-73,4	     1029,96	-74,9
     41,3182	     1020,31	-74,7	     1024,57	-75,9
     41,3211	     1031,52	-75,1	     1028,94	-75,4
      41,324	     1042,64	-78,4	     1037,99	-74,2
      41,327	     1027,63	-77,0	      1030,8	-76,7
     41,3299	     1036,35	-74,9	     1033,29	-77,5
     41,3328	     1032,69	-74,7	     1047,45	-75,2
     41,3358	     1034,06	-74,7	     1037,32	-75,0
     41,3387	     1036,19	-74,8	     1041,05	-74,9
     41,3416	     1040,73	-77,3	     1035,59	-74,2
     41,3446	     1040,68	-76,6	     1050,66	-75,8
     41,3475	      1052,4	-75,4	     1042,18	-74,4
     41,3504	     1049,15	-75,0	     1052,42	-76,6
     41,3534	     1045,49	-76,2	     1048,93	-75,9
     41,3563	     1071,46	-76,6	     1056,05	-78,2
     41,3592	     1051,85	-77,7	     1057,31	-77,1
     41,3622	      1058,1	-76,5	     1059,12	-75,4
     41,3651	     1047,12	-75,1	     1061,05	-75,3
      41,368	     1067,75	-75,5	      1071,8	-76,6
      41,371	     1065,65	-74,2	     1073,49	-75,4
     41,3739	     1074,62	-74,0	     1077,22	-77,1
     41,3768	     1068,85	-76,5	     1064,19	-74,9
     41,3798	     1067,95	-75,2	     1064,88	-77,3
     41,3827	     1070,64	-75,4	     1083,65	-75,7
     41,3856	     1068,31	-73,7	     1079,58	-76,1
     41,3886	     1076,23	-74,0	     1083,71	-75,8
     41,3915	     1079,15	-75,1	     1081,46	-76,3
     41,3944	     1067,61	-74,8	     1081,22	-75,1
     41,3974	     1087,87	-76,1	     1098,81	-75,9
     41,4003	     1090,58	-75,1	      1085,5	-73,8
     41,4032	      1092,9	-75,1	     1090,15	-75,4
     41,4062	     1098,65	-75,7	     1096,17	-74,4
     41,4091	     1094,39	-73,6	     1086,26	-74,1
      41,412	     1095,37	-76,0	     1103,36	-76,0
      41,415	     1104,16	-75,1	     1090,28	-75,4
     41,4179	     1105,77	-76,0	     1106,04	-76,6
     41,4208	     1095,53	-73,2	     1116,09	-74,6
     41,4238	     1109,99	-73,9	     1103,53	-72,7
     41,4267	     1112,01	-74,3	      1099,4	-73,9
     41,4296	     1103,54	-72,5	     1120,78	-75,8
     41,4326	     1113,39	-72,8	     1122,39	-77,5
     41,4355	     1118,17	-74,3	     1131,07	-76,9
     41,4384	     1123,44	-75,8	     1126,23	-75,4
     41,4413	     1124,09	-75,6	     1124,18	-73,0
     41,4443	     1109,35	-73,8	     1114,12	-73,8
     41,4472	     1121,52	-74,0	     1129,88	-75,4
     41,4501	      1128,3	-73,9	     1147,48	-76,0
     41,4531	     1133,63	-76,4	     1133,49	-74,8
      41,456	     1132,15	-76,7	     1134,07	-74,0
     41,4589	     1125,85	-76,2	     1145,48	-72,2
     41,4619	     1135,23	-74,0	     1142,47	-73,7
     41,4648	     1143,08	-71,6	     1130,98	-74,1
     41,4677	     1145,73	-73,8	     1143,13	-75,0
     41,4707	     1150,32	-75,7	     1150,56	-75,3
     41,4736	     1143,92	-75,6	     1148,75	-74,4
     41,4765	     1146,04	-74,3	     1155,93	-75,3
     41,4795	      1155,1	-73,2	     1169,54	-74,7
     41,4824	     1155,32	-72,9	     1166,06	-72,8
     41,4853	     1161,45	-73,6	     1162,61	-74,5
     41,4883	     1150,85	-73,0	     1175,12	-73,8
     41,4912	     1157,73	-70,9	     1175,46	-74,6
     41,4941	     1164,53	-74,3	     1182,27	-75,8
     41,4971	     1168,43	-74,7	      1184,1	-73,2
        41,5	     1174,36	-75,8	     1175,34	-72,7
     41,5029	     1176,22	-72,6	      1169,2	-72,8
     41,5059	     1183,87	-72,1	     1189,95	-73,6
     41,5088	     1178,69	-72,8	     1181,23	-73,9
     41,5117	     1180,66	-73,4	     1190,98	-75,8
     41,5147	     1182,45	-72,8	     1201,64	-74,0
     41,5176	     1187,53	-74,8	     1193,92	-72,7
     41,5205	     1182,93	-73,8	      1195,4	-72,5
     41,5235	     1200,61	-73,6	     1204,87	-72,8
     41,5264	     1199,39	-72,2	     1207,23	-71,4
     41,5293	      1204,2	-72,7	     1217,62	-75,2
     41,5323	     1205,89	-72,0	     1211,96	-73,8
     41,5352	     1199,37	-72,4	     1211,37	-75,2
     41,5381	     1202,38	-73,6	      1217,3	-75,0
     41,5411	     1207,09	-75,3	     1210,83	-73,9
      41,544	     1212,42	-74,8	     1210,95	-72,9
     41,5469	     1209,66	-74,0	     1223,08	-73,0
     41,5499	     1216,57	-71,4	     1237,33	-72,3
     41,5528	     1221,49	-71,4	     1231,55	-73,0
     41,5557	     1234,18	-72,2	      1229,8	-73,7
     41,5587	     1223,71	-70,7	     1240,66	-73,3
     41,5616	     1227,28	-73,6	     1231,64	-73,5
     41,5645	     1237,95	-73,6	     1234,15	-74,5
     41,5674	     1242,17	-74,0	     1253,24	-73,7
     41,5704	     1241,81	-74,1	      1244,3	-72,1
     41,5733	     1241,67	-73,2	     1249,78	-71,6
     41,5762	     1245,77	-70,2	      1251,7	-73,2
     41,5792	     1241,59	-70,7	     1269,39	-73,3
     41,5821	     1263,22	-72,1	     1269,41	-72,7
      41,585	     1258,68	-75,0	     1261,28	-72,4
      41,588	     1250,16	-73,2	     1264,61	-74,4
     41,5909	     1263,77	-73,0	      1271,2	-72,2
     41,5938	     1275,05	-73,1	     1274,98	-72,0
     41,5968	     1275,83	-73,5	     1284,63	-70,6
     41,5997	     1270,41	-71,0	     1281,12	-71,4
     41,6026	     1275,78	-70,2	     1275,77	-73,0
     41,6056	     1282,74	-71,8	     1294,66	-74,2
     41,6085	     1276,17	-73,8	     1298,27	-73,1
     41,6114	     1282,93	-72,2	     1291,43	-71,4
     41,6144	     1290,56	-71,6	     1287,64	-72,9
