X-Data [Hz]	Piezo (M - Filtered) [mV]	Phase [Deg]	Piezo (M - Filtered) [mV]	Phase [Deg]	
	002: [07-09-24 17:28]		003: [07-09-24 17:31]	
        41,5	     9,62113	-107,8	     9,75784	-109,0
      41,502	     9,54015	-104,0	     9,83862	-105,5
     41,5039	     9,56687	-108,0	      9,8496	-105,8
     41,5059	     9,53445	-105,1	     9,78508	-104,0
     41,5078	     9,72411	-104,2	     9,73575	-106,1
     41,5098	     9,76453	-103,6	     9,86362	-105,1
     41,5117	     9,89451	-102,3	     9,99546	-107,2
     41,5137	     9,78376	-105,0	     10,1235	-104,3
     41,5156	     9,66589	-103,3	     9,76318	-105,1
     41,5176	     9,92862	-106,6	      9,6689	-107,1
     41,5196	      9,9497	-105,7	     9,96302	-108,0
     41,5215	     9,89978	-105,5	     10,0451	-108,9
     41,5235	     9,86103	-104,8	     9,93299	-102,3
     41,5254	     9,89338	-103,5	     9,80821	-104,7
     41,5274	     10,0064	-107,0	     9,81111	-107,9
     41,5293	     9,93959	-106,3	     10,0572	-105,9
     41,5313	     9,93055	-107,1	     10,1499	-106,5
     41,5332	      10,053	-106,8	      10,098	-104,2
     41,5352	     9,92798	-107,3	      10,045	-103,9
     41,5371	     9,93242	-106,1	     10,0505	-102,8
     41,5391	      10,137	-105,3	     10,1198	-103,7
     41,5411	     10,0682	-107,0	      10,228	-106,5
      41,543	     9,91973	-101,2	      10,286	-106,3
      41,545	     10,0671	-101,9	     10,1762	-106,3
     41,5469	      10,086	-104,5	     10,1105	-106,7
     41,5489	     10,1749	-101,7	     10,2616	-105,0
     41,5508	     10,2512	-107,5	     10,3437	-108,0
     41,5528	      10,184	-104,5	     10,2486	-105,2
     41,5547	     10,0492	-103,3	     10,1307	-107,3
     41,5567	     10,0794	-103,5	     10,1462	-104,7
     41,5587	     10,2638	-101,5	     10,2425	-104,5
     41,5606	     10,4155	-107,1	     10,4015	-104,1
     41,5626	     10,2755	-105,8	     10,2957	-104,0
     41,5645	     10,0995	-105,4	       10,43	-107,4
     41,5665	     10,3041	-104,6	     10,4026	-104,6
     41,5684	     10,5108	-104,7	     10,1847	-104,9
     41,5704	     10,3801	-107,2	      10,322	-105,3
     41,5723	     10,3737	-103,5	     10,3319	-101,6
     41,5743	     10,3284	-106,4	     10,3508	-107,3
     41,5762	     10,2612	-103,2	     10,4028	-106,7
     41,5782	     10,2458	-102,4	     10,4504	-105,4
     41,5802	     10,3431	-104,2	     10,4207	-100,9
     41,5821	      10,455	-102,9	     10,4692	-102,2
     41,5841	     10,4873	-106,7	     10,6135	-103,9
      41,586	     10,5339	-106,0	     10,5966	-103,3
      41,588	     10,5146	-103,9	     10,5583	-104,5
     41,5899	     10,3984	-105,8	     10,4246	-104,0
     41,5919	     10,4125	-103,6	     10,5098	-104,2
     41,5938	     10,5938	-105,8	     10,6741	-105,4
     41,5958	     10,6484	-107,9	     10,6352	-103,6
     41,5978	     10,6024	-104,5	     10,7169	-107,6
     41,5997	     10,5216	-106,1	     10,6743	-106,9
     41,6017	     10,5264	-101,8	     10,6994	-103,0
     41,6036	     10,7375	-103,6	     10,6189	-105,3
     41,6056	     10,6609	-104,5	      10,622	-102,1
     41,6075	     10,6173	-102,3	     10,7556	-102,9
     41,6095	     10,6654	-104,8	     10,8814	-105,0
     41,6114	     10,7634	-102,8	     10,8816	-103,2
     41,6134	     10,7805	-105,3	     10,8187	-104,1
     41,6153	     10,7683	-104,4	      10,813	-103,9
     41,6173	     10,6029	-106,5	     10,9196	-106,8
     41,6193	     10,8049	-105,6	     10,8582	-104,0
     41,6212	     10,9624	-102,5	     10,9032	-105,6
     41,6232	      10,834	-105,0	     10,9718	-108,9
     41,6251	     10,8427	-103,6	     10,8243	-99,9
     41,6271	     10,7525	-104,0	     10,9175	-103,5
      41,629	     10,8168	-104,5	     11,0015	-102,6
      41,631	     11,0067	-103,5	     10,9165	-104,0
     41,6329	     10,9905	-105,3	     11,0932	-105,6
     41,6349	     10,9832	-103,9	     11,0619	-102,4
     41,6369	     10,9385	-105,6	      11,048	-106,2
     41,6388	     11,0322	-104,6	      11,016	-103,2
     41,6408	     11,0394	-105,0	     11,1428	-104,6
     41,6427	     11,0833	-105,9	     11,2328	-105,5
     41,6447	     11,0681	-102,9	     11,1286	-102,3
     41,6466	     11,0446	-102,1	     11,0927	-105,5
     41,6486	     11,0842	-105,1	     11,2286	-101,7
     41,6505	     11,0935	-101,4	     11,0514	-100,7
     41,6525	     11,2485	-106,9	     11,1743	-105,0
     41,6544	     11,2462	-103,7	     11,2343	-103,0
     41,6564	     11,3091	-103,1	     11,4621	-103,5
     41,6584	     11,3789	-105,4	     11,3769	-105,4
     41,6603	     11,1777	-102,6	     11,3715	-102,3
     41,6623	     11,2003	-103,8	     11,3114	-103,5
     41,6642	     11,1562	-106,8	     11,1719	-104,2
     41,6662	     11,3966	-103,4	     11,3805	-104,9
     41,6681	     11,4297	-104,0	     11,4933	-104,9
     41,6701	     11,3642	-102,5	     11,3946	-103,6
      41,672	     11,4796	-99,8	     11,4726	-105,2
      41,674	     11,3902	-104,3	     11,5145	-103,5
      41,676	     11,3019	-101,1	     11,4757	-101,4
     41,6779	     11,5215	-106,6	     11,5791	-103,9
     41,6799	     11,4073	-106,6	     11,6549	-103,1
     41,6818	     11,5072	-103,0	     11,5065	-105,4
     41,6838	     11,5562	-103,7	     11,6645	-105,2
     41,6857	     11,6411	-102,0	     11,6315	-102,3
     41,6877	     11,7201	-104,2	     11,5243	-104,7
     41,6896	      11,564	-102,2	      11,591	-102,7
     41,6916	     11,5192	-103,3	     11,7288	-100,8
     41,6936	     11,5134	-102,3	     11,7797	-103,7
     41,6955	     11,6781	-101,0	     11,6694	-101,8
     41,6975	     11,6547	-105,3	     11,6022	-106,1
     41,6994	     11,5392	-104,4	     11,7218	-105,0
     41,7014	     11,6654	-100,4	     11,8814	-103,3
     41,7033	     11,9397	-105,2	     11,9159	-102,9
     41,7053	     11,9779	-105,7	     11,9073	-100,8
     41,7072	     11,8389	-102,4	     11,8204	-103,5
     41,7092	     11,6714	-103,5	     11,7835	-103,0
     41,7111	     11,6705	-100,5	     11,8593	-102,5
     41,7131	     11,9301	-101,2	     11,9866	-103,3
     41,7151	     11,9922	-102,6	     11,9578	-100,8
      41,717	     11,8359	-101,3	     12,0993	-107,1
      41,719	     11,8637	-103,0	     12,1272	-104,4
     41,7209	     11,9741	-101,2	     12,0137	-101,8
     41,7229	     12,1478	-99,0	     11,9875	-105,9
     41,7248	     12,0133	-103,4	     12,0181	-100,7
     41,7268	     12,1096	-104,1	     12,0872	-102,2
     41,7287	     12,1268	-104,4	     12,2195	-103,3
     41,7307	     12,0184	-102,0	     12,2752	-99,7
     41,7327	     12,0435	-101,5	     12,2156	-101,2
     41,7346	     11,9805	-102,3	     12,2443	-104,3
     41,7366	     12,0223	-102,0	     12,2145	-102,2
     41,7385	     12,1225	-101,4	     12,2945	-103,6
     41,7405	     12,2661	-105,1	     12,2634	-102,5
     41,7424	     12,2757	-102,9	     12,2327	-102,5
     41,7444	     12,3122	-103,0	     12,3988	-103,6
     41,7463	     12,3411	-104,1	     12,4255	-102,2
     41,7483	     12,2704	-101,6	      12,521	-104,1
     41,7502	     12,2816	-102,3	     12,2793	-101,5
     41,7522	     12,3181	-100,1	     12,4041	-101,1
     41,7542	     12,3091	-101,6	     12,5545	-102,0
     41,7561	     12,4579	-103,5	     12,4449	-100,2
     41,7581	     12,5367	-101,8	     12,4561	-103,0
       41,76	     12,3678	-102,3	     12,6551	-104,6
      41,762	     12,4094	-102,1	     12,5097	-101,3
     41,7639	     12,3421	-102,5	     12,5716	-103,3
     41,7659	     12,3932	-105,0	     12,5862	-100,6
     41,7678	     12,5979	-100,1	     12,7004	-99,7
     41,7698	     12,7508	-100,5	     12,8542	-103,1
     41,7718	      12,804	-102,6	     12,8962	-102,3
     41,7737	     12,7902	-101,0	     12,7663	-102,2
     41,7757	     12,5499	-102,9	     12,7609	-103,3
     41,7776	     12,5105	-101,7	     12,5981	-102,4
     41,7796	     12,8304	-100,8	     12,8375	-103,6
     41,7815	      12,714	-104,3	      13,003	-99,8
     41,7835	     12,7975	-99,2	     12,9676	-99,0
     41,7854	     12,6737	-103,3	     13,0268	-103,1
     41,7874	     12,7335	-103,5	      12,968	-101,9
     41,7893	     12,7727	-98,4	     12,8426	-103,1
     41,7913	     12,8193	-99,0	     12,8634	-104,1
     41,7933	      12,927	-101,9	     12,9621	-104,5
     41,7952	     12,9877	-101,1	     13,0615	-101,3
     41,7972	     13,1115	-104,0	     13,1235	-102,4
     41,7991	     12,9949	-103,3	     13,0635	-100,4
     41,8011	     12,8698	-101,6	     13,0877	-100,8
      41,803	     12,9301	-102,1	     13,2181	-102,3
      41,805	      12,964	-101,0	     13,1779	-102,1
     41,8069	     13,2048	-101,4	     13,2771	-103,8
     41,8089	     13,3197	-102,1	     13,2924	-100,3
     41,8109	     13,2921	-102,5	     13,2622	-101,1
     41,8128	     13,3464	-101,7	     13,3483	-101,4
     41,8148	     13,2704	-101,3	     13,2844	-101,9
     41,8167	     13,2031	-99,9	     13,3395	-101,2
     41,8187	     13,2979	-100,9	      13,374	-103,1
     41,8206	     13,3291	-101,4	     13,4003	-101,1
     41,8226	     13,3205	-102,8	     13,4148	-100,9
     41,8245	     13,3389	-103,8	      13,462	-101,2
     41,8265	     13,4088	-100,7	     13,6158	-98,3
     41,8284	     13,4028	-100,9	     13,5945	-101,1
     41,8304	     13,5171	-103,5	     13,5474	-99,4
     41,8324	     13,4157	-98,1	     13,6179	-104,2
     41,8343	     13,5962	-98,3	      13,722	-103,4
     41,8363	     13,6164	-100,9	       13,74	-98,7
     41,8382	     13,4457	-99,0	     13,7086	-100,8
     41,8402	     13,6163	-103,2	     13,8041	-100,2
     41,8421	     13,6148	-104,4	      13,795	-99,2
     41,8441	     13,6843	-99,1	     13,9198	-102,2
      41,846	     13,8007	-99,4	     13,8848	-101,8
      41,848	     13,7873	-98,6	     13,7761	-100,5
       41,85	     13,8445	-97,8	     13,7951	-102,2
     41,8519	     13,8718	-103,1	     13,9068	-105,0
     41,8539	     13,8014	-100,3	     13,9778	-99,5
     41,8558	     13,9666	-101,7	     14,0341	-100,6
     41,8578	     13,9242	-102,4	     14,0008	-95,8
     41,8597	     13,8902	-99,1	     13,9514	-99,0
     41,8617	     14,0314	-99,7	     14,2158	-102,8
     41,8636	     14,0189	-99,8	     14,3461	-100,6
     41,8656	     14,0498	-99,1	     14,3576	-102,8
     41,8675	     13,9874	-99,4	     14,2865	-101,0
     41,8695	     13,9727	-99,5	     14,2048	-98,7
     41,8715	     14,1524	-97,7	     14,3163	-100,6
     41,8734	     14,1487	-102,2	     14,2754	-97,7
     41,8754	     14,2531	-101,1	     14,4056	-98,5
     41,8773	     14,3376	-97,8	     14,5056	-101,8
     41,8793	     14,3342	-100,1	     14,5077	-101,2
     41,8812	     14,2334	-98,5	     14,3377	-101,3
     41,8832	     14,2794	-96,9	     14,3737	-103,4
     41,8851	      14,316	-102,6	     14,5224	-98,9
     41,8871	     14,2711	-101,0	     14,6413	-96,9
     41,8891	     14,3377	-99,6	      14,666	-100,5
      41,891	     14,3158	-100,9	     14,6433	-97,4
      41,893	     14,3776	-96,7	     14,6869	-101,7
     41,8949	     14,5998	-98,2	      14,778	-103,8
     41,8969	     14,7094	-99,1	     14,8493	-98,5
     41,8988	     14,7155	-98,0	      14,891	-101,0
     41,9008	     14,6259	-101,3	     14,8834	-97,3
     41,9027	     14,5793	-101,5	     14,8698	-97,0
     41,9047	     14,5715	-100,0	      14,881	-99,1
     41,9066	      14,686	-100,6	     14,8957	-99,9
     41,9086	      14,833	-97,5	     15,1067	-99,1
     41,9106	     14,9088	-96,8	     15,1808	-100,2
     41,9125	     14,9371	-98,7	     15,1482	-100,2
     41,9145	     14,9993	-99,2	       15,24	-97,8
     41,9164	     14,9682	-98,6	     15,1956	-101,2
     41,9184	     14,9286	-99,7	     15,1473	-96,4
     41,9203	     15,1318	-99,7	     15,2002	-97,1
     41,9223	     15,2512	-97,9	     15,2052	-99,0
     41,9242	     15,2181	-99,5	     15,3476	-96,7
     41,9262	     15,0145	-99,5	     15,3444	-96,9
     41,9282	     15,1137	-97,6	      15,408	-100,8
     41,9301	     15,1491	-99,0	      15,479	-99,5
     41,9321	     15,2164	-98,8	     15,3948	-99,2
      41,934	     15,3082	-97,8	     15,5063	-101,2
      41,936	     15,2144	-99,3	      15,598	-96,5
     41,9379	     15,2731	-97,1	     15,6701	-97,4
     41,9399	      15,479	-97,4	     15,7026	-99,5
     41,9418	     15,5842	-98,9	     15,6494	-97,0
     41,9438	     15,5248	-98,6	     15,7206	-99,0
     41,9457	     15,4292	-97,3	     15,6986	-98,4
     41,9477	     15,5509	-98,4	     15,7722	-97,3
     41,9497	     15,5605	-95,5	     15,9925	-99,3
     41,9516	      15,747	-95,5	     15,8795	-98,1
     41,9536	     15,7997	-100,2	     15,9315	-97,9
     41,9555	     15,7688	-97,1	     16,0103	-97,3
     41,9575	     15,8039	-97,0	     15,9676	-100,3
     41,9594	     15,8919	-97,9	     15,9533	-96,8
     41,9614	      15,913	-97,2	     16,1753	-96,9
     41,9633	     15,9153	-97,7	     16,3983	-98,2
     41,9653	     15,9725	-99,1	     16,3134	-98,9
     41,9673	     16,0601	-93,7	      16,354	-99,3
     41,9692	     16,1956	-95,8	     16,3724	-96,7
     41,9712	     16,0717	-98,9	     16,3963	-96,1
     41,9731	     16,0072	-97,1	     16,4599	-98,3
     41,9751	     16,1085	-98,2	     16,4629	-98,1
      41,977	     16,2396	-101,6	     16,6155	-96,2
      41,979	      16,217	-95,9	     16,5299	-96,3
     41,9809	     16,3508	-97,6	     16,5691	-97,0
     41,9829	     16,2461	-95,0	     16,5675	-98,9
     41,9848	     16,2864	-94,9	     16,7499	-100,4
     41,9868	      16,313	-99,0	     16,9099	-98,4
     41,9888	     16,4775	-97,7	     16,6998	-96,2
     41,9907	     16,6672	-98,8	     16,7552	-98,1
     41,9927	     16,7435	-97,8	      16,668	-94,1
     41,9946	     16,6593	-98,8	     16,7068	-95,1
     41,9966	     16,6937	-96,1	     16,8552	-99,2
     41,9985	     16,7619	-97,5	     17,0327	-95,6
     42,0005	     16,6791	-94,8	     17,1431	-97,1
     42,0024	     16,7949	-93,1	     17,1804	-97,5
     42,0044	     16,9666	-98,4	     17,1747	-96,7
     42,0064	     16,9607	-98,3	     17,2507	-96,3
     42,0083	     17,0549	-95,7	     17,1715	-96,9
     42,0103	     17,0604	-97,7	     17,2588	-97,0
     42,0122	     17,0948	-98,6	      17,366	-95,6
     42,0142	     17,3202	-94,5	     17,5639	-95,5
     42,0161	     17,2613	-97,7	     17,6183	-93,0
     42,0181	     17,1253	-96,5	     17,5515	-94,2
       42,02	     17,2154	-94,6	     17,6652	-97,6
      42,022	     17,3008	-95,8	     17,7075	-97,1
     42,0239	      17,387	-95,4	     17,7328	-96,7
     42,0259	     17,5918	-94,7	     17,8707	-98,1
     42,0279	     17,6863	-95,9	     17,8581	-93,1
     42,0298	        17,6	-95,3	     17,9085	-93,4
     42,0318	     17,5475	-97,2	     17,8332	-95,0
     42,0337	     17,6825	-96,3	     17,9509	-93,3
     42,0357	      17,737	-95,3	     17,9571	-93,3
     42,0376	      17,809	-92,5	     18,0139	-96,9
     42,0396	     17,8295	-93,7	     18,0034	-95,1
     42,0415	     18,0057	-95,5	     17,9394	-95,0
     42,0435	      17,822	-93,3	     18,1312	-95,8
     42,0455	      17,872	-93,7	      18,278	-94,5
     42,0474	      17,925	-96,1	     18,2681	-95,3
     42,0494	     17,9883	-94,3	     18,3731	-95,9
     42,0513	     18,1399	-97,7	     18,4235	-96,8
     42,0533	     18,1023	-97,4	     18,5623	-93,6
     42,0552	     18,2154	-92,4	      18,724	-94,2
     42,0572	     18,3399	-93,5	     18,8522	-92,9
     42,0591	     18,2363	-94,8	     18,8455	-91,6
     42,0611	     18,3165	-92,7	     18,8143	-92,1
      42,063	     18,5399	-93,6	     18,9605	-97,4
      42,065	     18,4791	-94,7	     19,0505	-93,9
      42,067	     18,5587	-92,4	     19,0401	-94,4
     42,0689	     18,7202	-93,5	      19,114	-96,7
     42,0709	     18,7324	-95,7	     19,0964	-91,7
     42,0728	      18,689	-93,6	     19,0844	-93,1
     42,0748	     18,7661	-93,1	     19,1379	-93,3
     42,0767	      18,968	-95,9	     19,2214	-92,5
     42,0787	     19,0245	-95,4	     19,3529	-93,8
     42,0806	     18,9203	-90,9	     19,4429	-93,4
     42,0826	     19,0888	-92,7	     19,5674	-92,7
     42,0846	     19,0026	-92,4	     19,5805	-91,6
     42,0865	     19,0584	-91,9	     19,6036	-94,7
     42,0885	     19,1606	-95,3	     19,6877	-95,1
     42,0904	     19,2273	-93,4	     19,7285	-94,8
     42,0924	     19,3721	-92,3	     19,9935	-93,5
     42,0943	     19,4458	-90,9	     19,9996	-92,1
     42,0963	     19,4809	-94,2	     19,9302	-91,1
     42,0982	      19,519	-93,5	     20,0063	-94,3
     42,1002	     19,6402	-93,2	     20,0277	-91,8
     42,1021	     19,6749	-94,2	     20,2166	-90,5
     42,1041	     19,8062	-88,8	     20,2223	-91,6
     42,1061	     19,9414	-90,2	     20,4001	-93,4
      42,108	     19,9499	-93,0	     20,5049	-90,8
       42,11	      19,933	-90,6	     20,5618	-95,0
     42,1119	     20,0022	-88,4	     20,5883	-93,7
     42,1139	     20,1812	-94,8	      20,595	-89,4
     42,1158	     20,1834	-93,6	      20,695	-92,0
     42,1178	     20,2459	-92,6	     20,8651	-91,3
     42,1197	     20,2987	-93,6	     20,7932	-89,2
     42,1217	     20,3337	-90,7	     20,8018	-89,8
     42,1237	     20,3243	-90,1	     20,8712	-92,5
     42,1256	     20,4824	-91,3	     21,0151	-93,0
     42,1276	     20,5694	-92,4	     21,0856	-88,4
     42,1295	     20,6697	-89,0	     21,2349	-89,0
     42,1315	     20,6739	-89,6	     21,3901	-91,8
     42,1334	     20,7138	-91,8	     21,4631	-89,8
     42,1354	     20,8477	-90,1	     21,3891	-91,8
     42,1373	     20,9352	-91,8	     21,4273	-92,7
     42,1393	     20,9611	-92,0	     21,5208	-90,2
     42,1413	     21,0484	-90,1	     21,6442	-91,5
     42,1432	      21,098	-90,4	     21,7961	-90,2
     42,1452	     21,3488	-93,2	     21,9015	-90,8
     42,1471	     21,2838	-91,7	     21,8971	-89,9
     42,1491	     21,4332	-87,5	     21,9696	-89,4
      42,151	     21,5491	-88,8	     22,0833	-88,4
      42,153	     21,4805	-88,8	      22,132	-87,3
     42,1549	     21,5528	-88,0	      22,315	-91,3
     42,1569	     21,7886	-91,5	      22,318	-88,4
     42,1588	     21,7572	-91,9	     22,3989	-87,2
     42,1608	     21,8111	-89,3	     22,3849	-91,8
     42,1628	     21,8631	-86,3	     22,5605	-92,8
     42,1647	      22,066	-90,8	     22,5764	-87,9
     42,1667	     22,1681	-87,2	     22,7243	-89,2
     42,1686	     22,3135	-87,6	     22,8225	-90,8
     42,1706	     22,3622	-89,9	     22,9006	-87,2
     42,1725	     22,2844	-87,5	      23,059	-86,9
     42,1745	      22,379	-86,2	     23,2088	-87,4
     42,1764	      22,484	-88,2	     23,2132	-89,5
     42,1784	      22,562	-91,3	     23,2985	-86,6
     42,1804	     22,6074	-83,6	     23,3831	-87,2
     42,1823	     22,8503	-84,9	     23,6516	-89,4
     42,1843	      22,906	-88,7	     23,7152	-86,5
     42,1862	     22,9699	-87,4	     23,6757	-88,6
     42,1882	     23,1173	-88,2	     23,7398	-88,9
     42,1901	      23,126	-91,4	     23,8723	-87,1
     42,1921	     23,0679	-85,8	     23,9021	-85,3
      42,194	     23,1472	-86,0	     24,0543	-89,4
      42,196	     23,2764	-87,0	     24,1327	-88,1
     42,1979	     23,4951	-88,2	     24,2851	-85,8
     42,1999	      23,593	-87,4	     24,3896	-86,7
     42,2019	     23,6854	-85,7	     24,6245	-85,2
     42,2038	     23,7618	-87,1	     24,7322	-84,2
     42,2058	     23,8564	-83,1	      24,823	-87,3
     42,2077	     24,0233	-82,6	     24,8334	-86,4
     42,2097	     24,1361	-87,3	     25,0376	-83,4
     42,2116	      24,146	-86,2	     25,0625	-85,7
     42,2136	     24,1952	-86,5	     25,1987	-86,5
     42,2155	     24,3081	-87,3	     25,2043	-86,0
     42,2175	     24,4621	-85,9	     25,1648	-86,0
     42,2195	     24,4719	-85,7	     25,3765	-86,2
     42,2214	     24,5914	-86,4	     25,4553	-85,8
     42,2234	     24,6426	-88,7	      25,652	-84,7
     42,2253	     24,7013	-84,5	     25,7374	-86,2
     42,2273	     24,7812	-84,1	     25,8361	-86,8
     42,2292	      24,968	-86,2	      26,014	-81,3
