X-Data [Hz]	Piezo (M - Filtered) [mV]	Phase [Deg]	
	002: [07-05-24 16:43]	
       41,25	     40,4339	-109,4
     41,2522	     40,1727	-97,4
     41,2544	     43,1329	-116,8
     41,2566	      41,773	-112,0
     41,2588	     38,8901	-95,1
      41,261	     42,5597	-111,3
     41,2632	     43,5425	-113,0
     41,2654	     38,9285	-97,0
     41,2676	     41,9413	-113,2
     41,2698	     42,8995	-108,9
      41,272	      44,142	-116,5
     41,2742	      42,428	-111,2
     41,2764	     39,6886	-93,6
     41,2786	     42,4677	-112,7
     41,2808	     42,4644	-110,3
      41,283	     41,0835	-94,6
     41,2852	     43,0948	-116,7
     41,2874	     40,3203	-103,6
     41,2896	     40,0326	-98,6
     41,2918	     45,0812	-119,2
      41,294	     41,0515	-100,2
     41,2962	     41,1333	-107,3
     41,2984	     42,6017	-112,9
     41,3006	     42,9577	-104,1
     41,3028	     42,5331	-98,2
      41,305	     42,0986	-104,9
     41,3072	     39,7941	-105,1
     41,3094	     45,2326	-111,9
     41,3116	     42,5052	-94,2
     41,3138	     42,4907	-110,0
      41,316	     44,1852	-111,5
     41,3182	     41,8752	-96,7
     41,3204	     45,2897	-112,4
     41,3226	     43,5805	-111,4
     41,3248	     42,2634	-96,8
      41,327	     42,4469	-108,2
     41,3292	     45,0479	-111,3
     41,3314	     41,4946	-100,2
     41,3336	     42,5333	-106,9
     41,3358	     42,3291	-91,0
      41,338	     45,9486	-117,7
     41,3402	     43,1089	-107,5
     41,3424	     40,4477	-97,0
     41,3446	      46,185	-116,0
     41,3468	     45,1541	-103,7
      41,349	     41,7068	-97,8
     41,3512	     44,3695	-115,3
     41,3534	     45,9469	-101,2
     41,3556	     43,7029	-104,0
     41,3578	     45,5522	-115,5
       41,36	     43,0235	-97,4
     41,3622	     42,4709	-109,6
     41,3644	     46,1678	-107,9
     41,3666	     45,1974	-98,5
     41,3688	      44,502	-111,0
      41,371	     40,9911	-93,6
     41,3732	     44,8806	-111,2
     41,3754	     46,6931	-109,7
     41,3776	     42,7575	-94,2
     41,3798	     45,4172	-117,0
      41,382	     44,6116	-102,2
     41,3842	     42,3774	-98,1
     41,3864	     46,8306	-114,5
     41,3886	      45,494	-99,5
     41,3908	     46,3807	-110,7
      41,393	     45,6339	-98,2
     41,3952	     45,3985	-108,1
     41,3974	     45,7779	-111,6
     41,3996	     45,0037	-97,8
     41,4018	     44,2529	-108,2
      41,404	     46,7277	-109,1
     41,4062	      44,549	-98,2
     41,4084	     46,1316	-114,7
     41,4106	     46,8287	-105,8
     41,4128	     44,6364	-99,0
      41,415	     44,4118	-99,7
     41,4172	     42,7631	-97,4
     41,4194	     47,5257	-113,8
     41,4216	     45,8693	-94,4
     41,4238	     46,5159	-106,7
      41,426	     47,8812	-111,7
     41,4282	     44,8914	-95,2
     41,4304	     46,5726	-118,7
     41,4326	     45,8925	-103,2
     41,4347	     43,9576	-97,0
      41,437	     48,8827	-119,2
     41,4391	     45,5296	-98,7
     41,4413	     45,9266	-100,0
     41,4436	     48,1385	-116,8
     41,4457	     45,4961	-90,9
     41,4479	      48,307	-112,2
     41,4501	     45,2691	-101,5
     41,4523	      46,943	-111,4
     41,4545	     47,3516	-104,9
     41,4567	     47,5641	-97,2
     41,4589	     48,7894	-114,6
     41,4611	      46,225	-103,8
     41,4633	     46,9039	-96,8
     41,4655	     50,4271	-112,5
     41,4677	     47,7861	-109,1
     41,4699	     48,2886	-109,6
     41,4721	     46,5779	-92,3
     41,4743	      49,196	-116,8
     41,4765	     48,9138	-102,3
     41,4787	     45,8457	-95,7
     41,4809	     49,4323	-114,7
     41,4831	     47,1738	-99,5
     41,4853	     46,8165	-106,3
     41,4875	     50,1543	-110,3
     41,4897	     47,7946	-94,6
     41,4919	     49,0911	-111,8
     41,4941	     49,6925	-105,8
     41,4963	     51,5765	-117,7
     41,4985	     48,4426	-98,5
     41,5007	     46,9914	-100,1
     41,5029	     51,7146	-114,1
     41,5051	     47,1815	-94,9
     41,5073	     49,4941	-109,4
     41,5095	     50,2296	-105,9
     41,5117	      47,501	-94,0
     41,5139	     50,0392	-112,7
     41,5161	     49,6923	-101,4
     41,5183	     51,7179	-113,9
     41,5205	       48,72	-97,5
     41,5227	     50,5381	-108,2
     41,5249	     51,1374	-108,0
     41,5271	     47,8127	-96,5
     41,5293	     51,2911	-113,7
     41,5315	     49,9321	-100,0
     41,5337	     49,6524	-99,8
     41,5359	     52,2182	-114,6
     41,5381	     51,5838	-106,9
     41,5403	     51,4729	-108,3
     41,5425	     48,1442	-99,2
     41,5447	     51,9982	-112,6
     41,5469	     50,8422	-97,4
     41,5491	     50,5774	-106,2
     41,5513	     52,7229	-109,6
     41,5535	     49,3242	-96,3
     41,5557	      51,718	-108,4
     41,5579	     52,8422	-106,0
     41,5601	     49,8415	-97,3
     41,5623	      51,949	-114,0
     41,5645	     50,4303	-93,4
     41,5667	     53,1713	-106,8
     41,5689	     53,2469	-108,2
     41,5711	     52,6649	-116,1
     41,5733	     50,8545	-92,9
     41,5755	     52,9609	-103,5
     41,5777	     54,8798	-111,6
     41,5799	     51,2903	-97,5
     41,5821	     51,0357	-110,5
     41,5843	     53,5415	-98,8
     41,5865	     52,2745	-96,2
     41,5887	     54,3849	-112,9
     41,5909	      52,805	-95,2
     41,5931	     54,3672	-111,7
     41,5953	     53,2906	-104,4
     41,5975	     52,4028	-100,3
     41,5997	     52,6574	-95,6
     41,6019	        52,6	-108,2
     41,6041	     54,6089	-107,0
     41,6063	     52,0822	-98,6
     41,6085	     54,0505	-110,8
     41,6107	     52,5391	-98,6
     41,6129	     54,3867	-110,3
     41,6151	     53,9566	-101,4
     41,6173	     52,3877	-104,0
     41,6195	     55,1852	-110,5
     41,6217	     53,8296	-95,5
     41,6239	     55,0995	-110,0
     41,6261	     52,7558	-100,3
     41,6283	     54,6795	-114,6
     41,6305	     52,0481	-98,4
     41,6327	     53,4626	-109,4
     41,6349	     55,8448	-103,3
     41,6371	      54,065	-93,7
     41,6393	     56,7301	-114,6
     41,6415	     53,6336	-95,7
     41,6437	     54,8442	-104,1
     41,6459	     56,7825	-112,3
     41,6481	     54,3779	-92,3
     41,6503	     55,7549	-98,3
     41,6525	     54,5123	-103,2
     41,6547	     57,2734	-110,9
     41,6569	     54,8827	-90,8
     41,6591	     56,8425	-111,7
     41,6613	     57,0727	-105,8
     41,6635	       54,72	-95,6
     41,6657	     57,7709	-111,8
     41,6679	     57,5908	-107,2
     41,6701	     58,1335	-104,6
     41,6723	     55,5505	-95,0
     41,6745	       58,14	-113,7
     41,6767	      56,397	-95,3
     41,6789	     56,2191	-103,6
     41,6811	     57,8632	-106,4
     41,6833	     55,6372	-96,3
     41,6855	     59,4543	-111,9
     41,6877	     57,7487	-93,0
     41,6899	     60,1208	-112,5
     41,6921	     57,7338	-96,7
     41,6943	     56,1356	-102,6
     41,6965	     56,6691	-94,1
     41,6987	     59,7173	-109,6
     41,7009	     58,1753	-99,8
     41,7031	     57,0233	-97,4
     41,7053	     60,5462	-110,8
     41,7075	      57,437	-89,9
     41,7097	     60,6755	-109,1
     41,7119	     59,2966	-98,2
     41,7141	     59,4514	-105,9
     41,7163	     59,2661	-101,6
     41,7185	     57,7008	-99,1
     41,7207	     61,6899	-110,4
     41,7229	     60,2214	-104,2
     41,7251	     60,8938	-104,6
     41,7273	     58,4412	-97,7
     41,7295	     63,5942	-107,1
     41,7317	     60,7744	-92,3
     41,7339	     61,7766	-115,2
     41,7361	     58,7286	-96,5
     41,7383	     58,2058	-100,9
     41,7405	       62,99	-105,4
     41,7427	     60,7001	-97,0
     41,7449	     61,6892	-108,3
     41,7471	     59,0833	-99,4
     41,7493	     61,9355	-109,2
     41,7515	      59,726	-96,0
     41,7537	     63,4361	-107,6
     41,7559	     60,6681	-98,4
     41,7581	     61,6577	-107,0
     41,7603	     63,0918	-101,7
     41,7625	     60,3125	-95,9
     41,7647	     63,7019	-110,8
     41,7669	     62,6226	-109,0
     41,7691	     63,4223	-99,6
     41,7713	     61,1196	-98,8
     41,7735	     65,3587	-106,9
     41,7757	     60,6281	-93,0
     41,7779	     62,8469	-109,0
     41,7801	     62,3053	-97,4
     41,7823	     63,0337	-100,7
     41,7845	     63,8623	-104,0
     41,7867	     62,0437	-97,0
     41,7889	     65,8973	-109,7
     41,7911	     62,5715	-90,4
     41,7933	     65,7198	-109,9
     41,7955	     62,5121	-104,1
     41,7977	     63,6703	-105,7
     41,7999	     60,9346	-91,2
     41,8021	     65,9647	-108,3
     41,8043	     64,3902	-94,7
     41,8064	     65,1611	-105,3
     41,8087	      64,773	-99,0
     41,8109	       64,86	-105,4
      41,813	     67,3069	-104,6
     41,8153	     63,8252	-93,5
     41,8174	     67,1209	-110,1
     41,8196	     64,7161	-98,0
     41,8218	      65,256	-101,1
      41,824	     61,9758	-96,5
     41,8262	     67,1147	-111,1
     41,8284	     64,8594	-90,9
     41,8306	     68,3115	-107,8
     41,8328	     65,8672	-91,6
      41,835	     69,4999	-109,1
     41,8372	     67,9414	-93,7
     41,8394	      67,503	-100,4
     41,8416	     67,3822	-101,3
     41,8438	     64,8577	-99,5
      41,846	     69,1051	-105,3
     41,8482	     66,1712	-92,4
     41,8504	     67,2794	-96,3
     41,8526	     66,4681	-104,1
     41,8548	     67,6295	-99,3
      41,857	     66,1792	-96,8
     41,8592	     70,6872	-104,9
     41,8614	     67,1503	-93,1
     41,8636	     70,4353	-106,2
     41,8658	     68,2769	-95,4
      41,868	     70,0149	-104,8
     41,8702	      70,678	-95,4
     41,8724	     71,3941	-105,1
     41,8746	      68,371	-94,0
     41,8768	     71,7984	-109,6
      41,879	     68,8103	-90,6
     41,8812	     70,2429	-103,3
     41,8834	     70,5039	-96,1
     41,8856	     70,4926	-103,1
     41,8878	     71,0308	-102,5
       41,89	     69,7327	-88,9
     41,8922	     74,7006	-107,3
     41,8944	     70,6031	-92,9
     41,8966	     73,2885	-105,3
     41,8988	     70,6242	-92,5
      41,901	     72,7285	-107,8
     41,9032	     71,9969	-91,5
     41,9054	     73,2835	-102,1
     41,9076	     72,1404	-94,3
     41,9098	     75,3524	-108,1
      41,912	     71,6902	-92,2
     41,9142	     72,9614	-103,6
     41,9164	     72,8708	-94,2
     41,9186	     74,0839	-103,8
     41,9208	     73,5199	-96,1
      41,923	     72,4116	-99,7
     41,9252	     73,9793	-103,5
     41,9274	     72,2699	-94,9
     41,9296	     73,2269	-92,3
     41,9318	      75,468	-102,8
      41,934	       75,76	-96,7
     41,9362	     76,0711	-106,1
     41,9384	     75,0202	-94,9
     41,9406	     74,1362	-100,5
     41,9428	      76,904	-99,0
      41,945	     74,3279	-96,5
     41,9472	     77,6215	-98,7
     41,9494	     74,7376	-94,4
     41,9516	     78,9917	-105,7
     41,9538	     75,7433	-90,9
      41,956	     76,7995	-95,6
     41,9582	     76,1656	-101,0
     41,9604	     77,6885	-99,3
     41,9626	     76,5644	-97,4
     41,9648	     79,0988	-98,8
      41,967	     76,2682	-94,3
     41,9692	     80,6159	-99,2
     41,9714	     77,4415	-95,3
     41,9736	     81,4461	-102,6
     41,9758	     76,6432	-90,3
      41,978	     81,4433	-103,9
     41,9802	     77,5306	-89,8
     41,9824	     80,0594	-102,1
     41,9846	     79,4779	-92,9
     41,9868	     82,2171	-103,1
      41,989	     80,8541	-93,4
     41,9912	      81,536	-102,3
     41,9934	     78,0216	-93,5
     41,9956	     83,2542	-103,4
     41,9978	     80,6502	-91,6
          42	     83,3791	-102,4
     42,0022	     79,1594	-93,6
     42,0044	     81,6786	-101,0
     42,0066	     81,8779	-87,5
     42,0088	     82,2266	-97,6
      42,011	      82,366	-95,8
     42,0132	      82,916	-103,4
     42,0154	     80,4877	-94,2
     42,0176	     84,2449	-101,9
     42,0198	     82,0489	-89,9
      42,022	     86,2004	-101,7
     42,0242	     83,8712	-91,8
     42,0264	     86,2969	-101,0
     42,0286	     84,2617	-89,0
     42,0308	     85,1226	-100,2
      42,033	     84,8591	-90,2
     42,0352	     84,5926	-98,9
     42,0374	     84,4267	-89,3
     42,0396	     88,7255	-100,8
     42,0418	     85,5053	-94,4
      42,044	     89,5814	-100,6
     42,0462	     86,5613	-88,9
     42,0484	     89,7993	-100,5
     42,0506	     85,5538	-90,2
     42,0528	      89,753	-104,7
      42,055	     85,7186	-87,0
     42,0572	     89,6965	-100,6
     42,0594	     87,0086	-89,1
     42,0616	     92,3842	-100,2
     42,0638	     88,8325	-86,3
      42,066	     92,7656	-100,2
     42,0682	     88,5068	-90,6
     42,0704	     91,7869	-105,2
     42,0726	     89,3016	-89,5
     42,0748	     91,9039	-91,3
      42,077	     89,3795	-95,6
     42,0792	     91,4798	-92,2
     42,0814	     90,8536	-99,9
     42,0836	     91,2541	-90,8
     42,0858	     90,8518	-96,9
      42,088	     90,6728	-93,5
     42,0902	     92,1502	-100,2
     42,0924	      93,734	-94,2
     42,0946	     91,8206	-91,7
     42,0968	     95,8128	-94,3
      42,099	       92,21	-95,0
     42,1012	     95,0668	-95,5
     42,1034	     92,5443	-90,1
     42,1056	     94,1953	-85,4
     42,1078	     98,6857	-97,1
       42,11	     95,2353	-89,6
     42,1122	     98,5318	-100,9
     42,1144	     94,7339	-85,1
     42,1166	     97,4111	-98,9
     42,1188	     95,6445	-89,0
      42,121	     98,2593	-100,6
     42,1232	     96,0834	-85,4
     42,1254	      99,428	-98,6
     42,1276	     98,2581	-94,4
     42,1298	     99,5635	-91,9
      42,132	     97,2975	-94,4
     42,1342	      99,546	-92,1
     42,1364	     96,8933	-92,4
     42,1386	     101,001	-94,2
     42,1408	     100,215	-95,4
      42,143	     103,142	-90,2
     42,1452	      101,06	-91,9
     42,1474	     102,271	-92,4
     42,1496	     101,661	-98,1
     42,1518	     102,232	-90,5
      42,154	     100,861	-89,0
     42,1562	     100,058	-86,1
     42,1584	     104,411	-93,9
     42,1606	     100,941	-87,1
     42,1628	     106,539	-95,7
      42,165	     102,359	-88,2
     42,1672	     107,145	-92,0
     42,1694	     103,405	-88,2
     42,1716	     107,475	-97,1
     42,1738	     102,771	-89,2
      42,176	     106,833	-93,4
     42,1782	     107,735	-95,5
     42,1804	     105,149	-82,9
     42,1826	     109,526	-96,0
     42,1847	     106,221	-86,8
      42,187	     111,447	-91,9
     42,1891	     107,763	-82,5
     42,1913	     112,121	-95,1
     42,1936	     107,974	-89,5
     42,1957	     112,423	-95,3
     42,1979	     109,295	-84,0
     42,2001	      114,66	-91,9
     42,2023	     110,242	-86,5
     42,2045	     116,319	-94,2
     42,2067	     112,397	-89,1
     42,2089	     114,239	-89,0
     42,2111	     114,417	-94,6
     42,2133	     110,273	-83,0
     42,2155	     115,599	-94,0
     42,2177	     112,449	-86,2
     42,2199	     117,089	-91,6
     42,2221	     112,763	-83,6
     42,2243	     117,563	-94,7
     42,2265	     113,013	-84,4
     42,2287	     117,165	-92,9
     42,2309	      113,93	-81,6
     42,2331	     119,699	-89,0
     42,2353	     120,184	-88,2
     42,2375	      116,21	-83,8
     42,2397	     122,115	-90,9
     42,2419	     117,754	-84,8
     42,2441	     121,321	-91,1
     42,2463	      116,87	-80,8
     42,2485	       121,1	-92,9
     42,2507	      118,16	-85,9
     42,2529	      122,26	-86,5
     42,2551	       118,2	-86,0
     42,2573	     123,906	-87,0
     42,2595	     124,426	-94,0
     42,2617	     121,982	-80,9
     42,2639	     128,103	-90,0
     42,2661	     122,934	-79,1
     42,2683	      126,99	-87,7
     42,2705	     123,764	-84,0
     42,2727	     130,427	-86,9
     42,2749	     126,351	-80,2
     42,2771	     130,782	-85,1
     42,2793	      130,45	-88,4
     42,2815	      126,68	-82,5
     42,2837	      130,76	-93,2
     42,2859	     126,825	-82,6
     42,2881	     132,795	-86,2
     42,2903	     128,855	-81,0
     42,2925	     133,455	-80,7
     42,2947	     132,079	-87,7
     42,2969	     133,385	-82,0
     42,2991	     134,273	-88,4
     42,3013	     134,909	-75,9
     42,3035	      135,69	-87,4
     42,3057	      133,44	-75,8
     42,3079	     137,914	-90,5
     42,3101	     135,542	-75,3
     42,3123	     137,854	-78,8
     42,3145	     138,749	-85,1
     42,3167	     135,883	-75,8
     42,3189	     140,394	-87,1
     42,3211	     137,213	-76,9
     42,3233	     142,071	-84,6
     42,3255	     138,256	-74,5
     42,3277	     143,065	-83,6
     42,3299	     139,886	-77,1
     42,3321	     145,798	-85,8
     42,3343	     141,827	-78,3
     42,3365	     144,359	-76,1
     42,3387	     143,049	-80,6
     42,3409	      144,42	-74,7
     42,3431	     146,937	-86,0
     42,3453	     145,556	-74,1
     42,3475	     148,636	-76,1
     42,3497	     151,182	-84,1
     42,3519	     149,933	-72,8
     42,3541	       152,1	-82,0
     42,3563	     149,346	-73,6
     42,3585	     153,434	-84,8
     42,3607	     150,384	-74,4
     42,3629	     154,709	-79,1
     42,3651	     151,125	-75,2
     42,3673	     155,369	-78,4
     42,3695	     156,035	-77,5
     42,3717	     153,377	-74,2
     42,3739	     157,965	-83,1
     42,3761	     152,789	-73,8
     42,3783	     157,409	-72,9
     42,3805	     158,598	-75,8
     42,3827	     160,133	-71,8
     42,3849	     161,241	-81,7
     42,3871	     159,965	-70,1
     42,3893	     164,094	-77,0
     42,3915	     160,848	-67,0
     42,3937	     162,725	-65,9
     42,3959	       167,3	-77,2
     42,3981	     164,249	-69,9
     42,4003	     169,324	-80,4
     42,4025	     165,816	-68,8
     42,4047	     169,951	-72,6
     42,4069	     166,101	-72,1
     42,4091	     169,767	-72,7
     42,4113	     169,906	-74,8
     42,4135	     172,569	-67,3
     42,4157	     172,342	-72,2
     42,4179	     172,269	-70,9
     42,4201	     174,677	-64,0
     42,4223	     175,514	-72,9
     42,4245	     173,746	-63,3
     42,4267	     178,273	-74,1
     42,4289	     175,178	-66,0
     42,4311	     178,751	-69,6
     42,4333	     175,554	-65,6
     42,4355	     181,155	-64,8
     42,4377	      180,54	-73,3
     42,4399	     182,199	-63,9
     42,4421	     183,909	-71,8
     42,4443	     182,389	-61,1
     42,4465	     187,649	-65,9
     42,4487	     186,104	-68,2
     42,4509	     185,217	-60,9
     42,4531	     190,156	-72,6
     42,4553	     186,756	-61,5
     42,4575	     191,615	-66,2
     42,4597	     187,241	-62,1
     42,4619	     192,503	-60,6
     42,4641	     191,667	-65,1
     42,4663	     192,562	-60,7
     42,4685	     195,794	-67,8
     42,4707	     192,972	-58,2
     42,4729	     199,089	-61,2
     42,4751	     197,995	-64,7
     42,4773	     195,172	-55,8
     42,4795	     200,345	-63,3
     42,4817	     196,997	-59,3
     42,4839	     201,537	-60,6
     42,4861	     199,364	-63,2
     42,4883	     201,036	-54,0
     42,4905	     202,621	-61,4
     42,4927	     201,727	-53,9
     42,4949	     206,218	-64,8
     42,4971	     206,101	-63,9
     42,4993	     205,264	-52,9
     42,5015	     209,807	-56,2
     42,5037	     204,093	-55,4
     42,5059	      209,83	-51,2
     42,5081	     208,498	-58,0
     42,5103	     210,496	-48,6
     42,5125	     212,909	-61,1
     42,5147	     210,558	-50,2
     42,5169	     215,768	-53,9
     42,5191	     211,445	-51,5
     42,5213	     218,047	-51,2
     42,5235	     215,143	-54,8
     42,5257	     218,011	-46,8
     42,5279	      219,61	-55,6
     42,5301	     216,488	-46,3
     42,5323	     218,276	-49,1
     42,5345	     221,517	-51,4
     42,5367	     217,502	-48,1
     42,5389	     222,435	-45,2
     42,5411	     220,599	-49,5
     42,5433	     224,854	-49,5
     42,5455	     223,684	-50,3
     42,5477	     223,255	-44,5
     42,5499	     225,921	-51,2
     42,5521	     223,527	-43,3
     42,5543	     224,595	-41,4
     42,5564	     230,785	-43,9
     42,5587	      226,27	-45,0
     42,5609	     232,271	-41,8
