X-Data [Hz]	Piezo (M - Filtered) [mV]	Phase [Deg]	Piezo (M - Filtered) [mV]	Phase [Deg]	
	002: [07-10-24 10:05]		003: [07-10-24 10:08]	
        41,5	     1119,28	-88,4	     1240,89	-85,4
      41,502	     1115,49	-83,1	     1208,12	-88,4
     41,5039	     1147,67	-85,6	     1198,92	-84,6
     41,5059	     1151,64	-84,0	     1191,94	-84,1
     41,5078	     1174,61	-83,8	     1214,29	-87,2
     41,5098	     1196,99	-87,5	     1192,08	-84,4
     41,5117	     1182,62	-84,2	     1219,69	-89,5
     41,5137	     1190,92	-85,0	     1212,09	-86,3
     41,5156	     1194,96	-85,3	     1216,85	-88,0
     41,5176	     1193,93	-83,6	     1208,52	-84,3
     41,5196	     1212,67	-89,1	     1209,93	-85,8
     41,5215	     1197,49	-85,1	     1221,51	-85,6
     41,5235	     1226,37	-88,5	     1206,33	-83,7
     41,5254	      1210,9	-86,5	     1240,25	-88,8
     41,5274	     1229,33	-89,3	     1227,96	-85,4
     41,5293	     1221,74	-88,5	     1241,01	-89,4
     41,5313	     1219,85	-86,4	     1241,22	-87,9
     41,5332	     1233,52	-88,7	     1226,45	-86,2
     41,5352	     1214,33	-83,1	     1245,24	-88,5
     41,5371	     1233,27	-86,0	     1236,85	-86,3
     41,5391	     1215,11	-84,9	     1247,23	-87,9
     41,5411	     1219,74	-83,8	     1258,92	-89,4
      41,543	     1226,91	-86,5	     1235,57	-85,0
      41,545	     1226,99	-83,7	     1254,76	-87,7
     41,5469	     1240,45	-84,8	     1242,85	-83,5
     41,5489	     1235,03	-84,7	     1250,61	-86,2
     41,5508	     1227,69	-83,4	     1251,97	-84,5
     41,5528	     1248,49	-88,4	     1253,57	-83,7
     41,5547	     1241,09	-84,8	     1267,38	-85,5
     41,5567	     1269,94	-88,3	     1248,11	-82,9
     41,5587	     1257,21	-86,6	     1276,91	-87,7
     41,5606	     1258,33	-88,0	     1267,91	-85,1
     41,5626	     1264,32	-88,4	     1286,29	-88,8
     41,5645	     1260,76	-84,9	     1291,96	-87,4
     41,5665	     1277,26	-88,7	     1270,12	-84,4
     41,5684	     1267,11	-87,3	     1285,19	-87,9
     41,5704	     1273,14	-86,2	     1284,66	-85,5
     41,5723	     1276,36	-88,2	     1285,94	-87,6
     41,5743	     1274,12	-85,4	     1301,51	-88,5
     41,5762	     1288,63	-88,2	     1275,94	-83,9
     41,5782	     1265,85	-83,1	     1284,65	-86,9
     41,5802	     1275,34	-84,5	     1274,22	-82,1
     41,5821	     1269,43	-84,6	     1275,01	-83,1
     41,5841	     1267,09	-83,2	     1297,89	-84,7
      41,586	     1300,67	-88,0	     1291,86	-83,8
      41,588	     1282,91	-84,7	     1314,24	-86,3
     41,5899	     1304,44	-86,7	     1297,03	-83,2
     41,5919	     1293,65	-87,3	      1292,1	-83,0
     41,5938	     1293,13	-85,2	      1313,9	-85,6
     41,5958	     1307,64	-88,0	     1298,91	-83,2
     41,5978	     1294,15	-85,8	     1326,32	-88,6
     41,5997	     1315,74	-85,4	     1331,92	-86,3
     41,6017	     1308,19	-82,8	     1324,69	-86,2
     41,6036	        1311	-82,9	     1335,21	-86,7
     41,6056	     1313,38	-86,5	     1315,03	-84,2
     41,6075	     1297,47	-84,8	     1338,65	-86,7
     41,6095	     1331,57	-87,6	     1321,19	-82,7
     41,6114	     1319,74	-86,8	     1321,56	-84,2
     41,6134	     1312,06	-82,9	     1340,28	-83,5
     41,6153	     1337,02	-86,7	     1321,23	-81,7
     41,6173	     1322,59	-85,6	     1350,82	-85,8
     41,6193	     1343,25	-86,6	     1336,79	-83,4
     41,6212	     1341,14	-87,5	     1328,94	-82,6
     41,6232	     1339,51	-82,9	     1359,02	-86,0
     41,6251	     1344,89	-85,4	     1352,29	-82,7
     41,6271	     1328,25	-82,0	     1364,52	-86,4
      41,629	     1327,15	-81,8	     1363,13	-85,2
      41,631	     1349,26	-86,4	     1362,08	-85,0
     41,6329	     1330,76	-82,9	     1376,33	-86,3
     41,6349	     1364,45	-87,2	     1354,47	-82,7
     41,6369	        1365	-86,2	     1364,59	-84,1
     41,6388	      1360,5	-82,9	     1374,57	-82,5
     41,6408	     1379,69	-85,2	     1358,39	-81,2
     41,6427	     1351,24	-82,4	     1388,41	-85,9
     41,6447	     1368,53	-84,7	     1378,19	-82,9
     41,6466	     1355,35	-82,3	      1395,8	-86,6
     41,6486	     1357,18	-82,3	      1401,6	-85,7
     41,6505	     1373,64	-85,3	      1388,4	-83,1
     41,6525	     1366,67	-82,2	     1401,91	-84,7
     41,6544	     1396,32	-86,2	      1380,6	-81,5
     41,6564	     1386,94	-85,9	     1381,64	-82,7
     41,6584	     1390,54	-84,8	     1409,42	-84,6
     41,6603	     1392,53	-87,1	     1402,09	-84,3
     41,6623	     1391,86	-85,5	     1415,85	-85,7
     41,6642	     1403,84	-82,7	      1393,4	-80,6
     41,6662	     1411,27	-85,0	     1409,01	-83,4
     41,6681	     1383,33	-81,5	     1432,53	-86,1
     41,6701	     1397,77	-83,0	     1409,25	-82,1
      41,672	     1394,56	-83,2	     1424,35	-84,8
      41,674	     1393,61	-81,3	     1417,19	-81,3
      41,676	     1425,05	-85,6	      1414,6	-81,3
     41,6779	     1413,56	-83,5	     1436,58	-83,8
     41,6799	     1426,17	-84,5	     1427,06	-81,5
     41,6818	     1423,49	-85,4	     1450,35	-86,7
     41,6838	     1420,71	-82,7	     1455,45	-84,8
     41,6857	        1441	-85,6	     1437,08	-82,6
     41,6877	      1419,1	-81,2	     1451,33	-85,0
     41,6896	     1425,19	-81,2	     1436,21	-80,2
     41,6916	      1432,7	-84,0	     1443,28	-81,3
     41,6936	     1419,57	-80,4	     1461,97	-83,7
     41,6955	     1449,54	-85,4	     1455,82	-81,0
     41,6975	     1443,41	-84,6	     1479,79	-84,5
     41,6994	     1455,61	-83,1	     1464,94	-82,5
     41,7014	     1468,63	-85,3	     1469,08	-84,1
     41,7033	     1460,83	-83,9	     1484,38	-84,6
     41,7053	     1458,83	-82,0	     1466,73	-81,8
     41,7072	     1474,67	-84,4	     1486,15	-83,2
     41,7092	     1449,92	-80,3	     1478,45	-80,4
     41,7111	     1462,22	-81,3	     1472,47	-81,3
     41,7131	     1470,49	-83,8	     1487,17	-84,0
     41,7151	     1462,61	-81,6	     1475,41	-79,8
      41,717	     1489,47	-84,7	     1477,28	-80,5
      41,719	     1478,73	-83,4	     1507,79	-82,6
     41,7209	     1487,42	-81,8	     1499,01	-80,7
     41,7229	     1500,23	-84,0	     1522,99	-85,2
     41,7248	     1482,15	-80,1	     1524,17	-84,2
     41,7268	     1493,67	-81,2	     1507,91	-82,1
     41,7287	     1491,37	-82,1	     1522,33	-83,9
     41,7307	     1485,48	-80,1	     1509,65	-79,5
     41,7327	     1516,73	-83,9	      1519,7	-82,3
     41,7346	     1507,75	-82,1	     1538,69	-84,3
     41,7366	     1511,35	-82,1	     1517,89	-80,9
     41,7385	     1520,44	-84,8	     1534,54	-83,0
     41,7405	     1507,62	-79,7	     1539,12	-80,3
     41,7424	     1535,93	-82,1	     1531,16	-79,0
     41,7444	     1518,62	-80,5	     1560,87	-83,2
     41,7463	     1522,72	-79,1	     1537,81	-80,4
     41,7483	     1534,73	-83,8	     1559,74	-82,7
     41,7502	     1517,01	-81,9	     1574,48	-84,0
     41,7522	     1546,39	-83,7	     1546,79	-79,5
     41,7542	     1551,15	-83,9	     1562,21	-82,3
     41,7561	      1537,1	-79,8	     1554,78	-78,8
     41,7581	     1552,63	-81,8	     1563,26	-79,0
       41,76	     1556,88	-83,5	     1591,44	-81,4
      41,762	      1543,1	-79,0	     1582,56	-79,7
     41,7639	     1560,89	-80,8	      1605,1	-83,9
     41,7659	     1558,58	-80,3	     1607,66	-82,2
     41,7678	     1557,82	-80,1	     1584,81	-80,0
     41,7698	     1582,13	-82,9	     1604,48	-82,3
     41,7718	     1565,33	-80,8	     1608,52	-82,5
     41,7737	     1589,39	-82,4	     1599,73	-81,2
     41,7757	     1592,75	-82,3	     1613,61	-82,6
     41,7776	     1581,43	-79,5	     1595,63	-78,7
     41,7796	     1603,44	-82,3	     1603,78	-81,1
     41,7815	     1606,03	-82,9	     1618,74	-78,8
     41,7835	     1590,54	-78,9	     1610,42	-77,2
     41,7854	     1610,32	-81,1	     1624,55	-79,9
     41,7874	     1587,33	-80,1	      1640,6	-79,7
     41,7893	     1615,05	-81,4	     1623,94	-78,1
     41,7913	     1626,51	-82,2	     1649,89	-83,1
     41,7933	     1606,68	-78,5	     1648,95	-80,9
     41,7952	      1623,5	-79,7	     1648,81	-80,2
     41,7972	     1619,06	-80,6	     1669,09	-82,5
     41,7991	     1610,95	-78,5	     1652,86	-77,7
     41,8011	     1641,52	-81,8	     1666,42	-81,2
      41,803	     1626,33	-80,5	     1679,94	-81,2
      41,805	     1625,85	-76,7	     1660,25	-78,1
     41,8069	     1659,28	-81,8	     1695,45	-82,0
     41,8089	     1655,73	-81,3	     1692,94	-80,3
     41,8109	     1654,57	-79,7	     1680,18	-79,1
     41,8128	     1670,78	-81,2	     1694,19	-81,3
     41,8148	     1645,97	-78,6	     1681,44	-77,3
     41,8167	     1673,68	-80,4	      1681,5	-77,2
     41,8187	     1678,86	-80,4	     1705,83	-80,9
     41,8206	     1668,43	-78,5	     1708,69	-78,7
     41,8226	     1684,48	-79,2	     1714,67	-80,3
     41,8245	     1692,93	-82,2	     1709,04	-77,2
     41,8265	     1671,77	-77,9	      1704,7	-77,6
     41,8284	     1697,52	-79,7	      1743,8	-79,9
     41,8304	     1679,38	-77,7	     1739,97	-78,5
     41,8324	      1682,7	-77,1	     1727,93	-79,1
     41,8343	     1714,61	-80,6	     1748,07	-81,0
     41,8363	     1709,04	-78,9	     1746,95	-79,9
     41,8382	     1722,73	-78,6	     1734,93	-79,3
     41,8402	     1735,91	-80,9	     1754,76	-80,7
     41,8421	     1707,56	-77,4	     1736,82	-75,9
     41,8441	     1713,29	-77,3	     1741,62	-77,4
      41,846	     1727,11	-79,4	     1774,24	-78,4
      41,848	      1715,3	-77,3	     1767,98	-76,6
       41,85	     1739,76	-79,5	      1787,4	-80,4
     41,8519	     1743,52	-79,2	     1798,65	-79,4
     41,8539	     1749,46	-77,7	     1776,29	-76,6
     41,8558	     1767,29	-78,3	     1790,18	-79,7
     41,8578	      1752,4	-77,2	     1783,29	-75,3
     41,8597	     1751,06	-76,6	     1779,54	-76,0
     41,8617	     1779,66	-79,1	     1818,44	-79,1
     41,8636	     1756,86	-78,6	     1809,04	-76,7
     41,8656	     1776,36	-78,4	     1821,21	-79,3
     41,8675	     1785,09	-79,6	     1833,36	-79,8
     41,8695	     1772,33	-77,8	     1807,09	-74,9
     41,8715	     1797,31	-77,6	     1817,26	-77,0
     41,8734	     1815,23	-79,0	     1831,88	-76,9
     41,8754	     1789,63	-75,7	        1828	-74,8
     41,8773	     1801,61	-76,9	     1855,14	-78,8
     41,8793	     1798,14	-77,6	     1861,39	-78,0
     41,8812	     1799,15	-75,1	     1843,26	-76,9
     41,8832	     1825,58	-80,0	     1869,94	-78,7
     41,8851	     1818,95	-78,5	     1854,38	-74,9
     41,8871	     1812,53	-75,7	     1857,41	-75,4
     41,8891	     1849,86	-78,0	     1893,06	-78,0
      41,891	     1830,27	-75,8	     1881,13	-75,6
      41,893	     1836,72	-75,3	     1882,12	-76,4
     41,8949	     1852,45	-76,8	     1901,68	-78,0
     41,8969	     1844,23	-76,3	     1881,13	-74,7
     41,8988	     1859,55	-75,7	     1891,03	-75,2
     41,9008	     1863,33	-78,7	        1916	-76,6
     41,9027	     1869,26	-77,1	     1905,34	-74,8
     41,9047	     1870,25	-75,3	      1903,5	-74,7
     41,9066	     1889,54	-76,8	     1936,48	-76,9
     41,9086	     1878,37	-74,6	     1933,62	-74,3
     41,9106	     1883,34	-75,6	      1945,8	-76,7
     41,9125	     1896,93	-77,4	     1958,66	-77,2
     41,9145	     1892,03	-76,2	     1936,77	-74,3
     41,9164	     1916,54	-76,2	     1948,96	-76,0
     41,9184	     1925,45	-77,2	     1959,49	-75,0
     41,9203	     1903,22	-74,2	     1949,71	-73,5
     41,9223	     1913,57	-74,9	     1965,27	-74,5
     41,9242	     1932,07	-76,8	     1987,51	-75,2
     41,9262	     1923,31	-74,5	      1977,8	-74,2
     41,9282	     1950,01	-77,0	     2002,52	-75,9
     41,9301	     1947,82	-77,1	     1990,19	-73,9
     41,9321	      1938,8	-75,5	     1993,85	-73,0
      41,934	     1961,45	-74,4	     2024,29	-75,8
      41,936	     1951,53	-74,5	     2015,36	-75,4
     41,9379	     1948,44	-73,7	     1999,49	-74,7
     41,9399	     1985,95	-76,9	     2027,23	-76,1
     41,9418	     1987,01	-76,6	     2020,86	-72,2
     41,9438	     1980,73	-72,9	     2025,71	-72,4
     41,9457	     1996,73	-74,7	     2062,18	-75,3
     41,9477	     1982,34	-73,7	        2050	-72,4
     41,9497	     1981,69	-72,7	     2044,82	-72,4
     41,9516	     2021,28	-75,3	     2081,78	-75,9
     41,9536	     2013,39	-74,3	     2080,92	-74,1
     41,9555	     2001,46	-72,1	     2069,48	-74,2
     41,9575	     2037,53	-74,6	     2088,23	-75,3
     41,9594	     2047,46	-75,3	     2080,38	-71,0
     41,9614	     2019,29	-72,8	     2083,33	-72,0
     41,9633	     2057,43	-74,6	     2113,84	-72,6
     41,9653	     2046,44	-73,7	     2106,38	-71,5
     41,9673	     2068,58	-73,2	     2125,25	-74,9
     41,9692	     2078,03	-74,8	     2139,65	-75,0
     41,9712	     2072,13	-74,2	     2112,54	-71,4
     41,9731	     2064,68	-71,8	     2123,82	-72,6
     41,9751	     2082,54	-73,3	      2143,9	-70,7
      41,977	     2070,43	-72,3	     2140,06	-70,7
      41,979	     2076,65	-71,2	        2173	-73,1
     41,9809	     2115,13	-75,0	     2178,11	-72,1
     41,9829	     2106,87	-73,9	     2167,66	-70,0
     41,9848	     2120,21	-71,4	     2179,23	-73,5
     41,9868	     2130,01	-73,2	     2197,21	-72,8
     41,9888	      2112,6	-70,6	     2180,86	-70,3
     41,9907	     2118,28	-69,9	     2215,79	-73,0
     41,9927	     2139,96	-71,9	     2224,15	-72,8
     41,9946	     2133,59	-71,2	     2194,17	-70,2
     41,9966	     2136,65	-69,3	      2223,2	-71,6
     41,9985	     2182,15	-73,6	     2229,56	-69,4
     42,0005	     2178,95	-73,8	     2225,12	-68,8
     42,0024	     2169,29	-70,3	     2230,88	-69,9
     42,0044	     2188,06	-71,4	     2264,47	-71,0
     42,0064	      2177,6	-70,0	      2258,8	-68,8
     42,0083	     2178,87	-69,0	     2282,22	-72,7
     42,0103	     2212,77	-71,9	     2293,25	-72,0
     42,0122	     2213,41	-71,5	     2270,65	-68,5
     42,0142	     2211,06	-69,2	     2285,96	-69,9
     42,0161	     2229,94	-70,7	     2300,62	-69,4
     42,0181	     2215,98	-70,1	     2292,22	-67,7
       42,02	     2217,14	-68,9	     2316,06	-70,5
      42,022	     2259,17	-71,9	     2334,49	-70,5
     42,0239	     2261,46	-72,4	     2322,84	-69,3
     42,0259	     2246,41	-68,3	     2341,37	-70,1
     42,0279	     2262,29	-68,9	     2352,73	-68,5
     42,0298	     2270,55	-69,8	     2348,54	-67,5
     42,0318	     2283,26	-68,6	     2379,34	-70,2
     42,0337	     2302,91	-69,2	     2391,38	-69,8
     42,0357	     2292,98	-69,8	     2365,44	-66,2
     42,0376	     2288,94	-68,2	     2376,69	-67,1
     42,0396	     2336,92	-70,9	     2412,95	-67,7
     42,0415	     2328,59	-70,4	     2397,04	-66,7
     42,0435	     2323,92	-66,8	     2422,76	-70,0
     42,0455	     2355,66	-69,0	     2439,76	-69,1
     42,0474	     2363,13	-70,3	     2418,93	-67,7
     42,0494	     2340,28	-66,4	     2444,32	-68,4
     42,0513	     2352,14	-66,9	     2459,86	-66,5
     42,0533	     2375,98	-69,2	      2449,4	-65,4
     42,0552	     2368,67	-66,6	      2480,2	-68,1
     42,0572	     2384,67	-66,4	     2487,31	-67,9
     42,0591	     2394,51	-68,8	     2469,67	-65,4
     42,0611	     2390,59	-66,9	     2486,32	-66,6
      42,063	     2424,53	-68,9	     2508,65	-67,6
      42,065	     2430,91	-68,4	      2504,7	-65,0
      42,067	     2425,17	-67,1	      2507,6	-64,6
     42,0689	     2449,57	-66,4	     2545,07	-67,4
     42,0709	     2466,61	-67,5	     2552,15	-65,7
     42,0728	     2435,75	-64,5	     2542,26	-65,2
     42,0748	     2445,29	-63,8	     2565,19	-66,8
     42,0767	     2473,65	-67,8	     2555,78	-63,1
     42,0787	     2470,26	-66,6	      2561,2	-63,7
     42,0806	     2489,56	-66,1	     2601,67	-65,6
     42,0826	     2507,77	-67,7	     2593,21	-63,4
     42,0846	     2516,87	-67,3	     2585,68	-62,5
     42,0865	     2501,23	-64,8	     2627,47	-66,2
     42,0885	     2524,14	-65,4	     2639,03	-65,2
     42,0904	     2527,63	-65,3	     2620,23	-63,7
     42,0924	     2526,84	-64,6	     2641,19	-64,7
     42,0943	     2563,74	-64,9	     2672,11	-63,9
     42,0963	     2579,19	-65,4	     2666,99	-63,0
     42,0982	     2556,02	-62,2	      2690,9	-64,6
     42,1002	     2572,88	-63,2	     2708,04	-64,5
     42,1021	     2588,44	-65,1	     2683,88	-60,6
     42,1041	     2581,11	-63,0	      2688,5	-61,8
     42,1061	     2621,09	-64,5	     2732,17	-63,1
      42,108	     2636,96	-64,7	     2731,27	-61,7
       42,11	     2611,57	-62,3	     2753,65	-64,1
     42,1119	     2616,83	-62,4	     2774,59	-63,4
     42,1139	      2654,8	-64,4	     2759,83	-61,6
     42,1158	     2651,32	-63,7	     2762,41	-61,0
     42,1178	      2663,5	-61,7	     2803,18	-62,6
     42,1197	     2688,54	-63,3	     2808,91	-61,4
     42,1217	     2667,19	-61,5	     2797,43	-60,5
     42,1237	     2676,48	-61,1	     2822,19	-61,8
     42,1256	      2692,3	-60,1	     2825,67	-58,9
     42,1276	     2716,72	-63,1	     2828,68	-58,4
     42,1295	     2705,62	-61,7	     2870,45	-61,3
     42,1315	     2740,08	-61,5	     2877,53	-59,5
     42,1334	     2756,45	-62,2	     2863,56	-60,2
     42,1354	     2739,13	-60,5	     2888,04	-60,9
     42,1373	     2748,46	-60,1	        2900	-59,0
     42,1393	     2789,82	-62,1	     2901,82	-58,6
     42,1413	     2789,87	-62,0	     2936,66	-60,6
     42,1432	     2802,33	-59,5	     2949,95	-60,3
     42,1452	     2819,86	-60,2	     2925,54	-56,6
     42,1471	     2792,31	-59,1	     2937,85	-57,3
     42,1491	     2793,77	-57,5	     2961,44	-58,9
      42,151	     2848,68	-60,8	      2964,3	-56,8
      42,153	     2856,28	-60,3	     2963,17	-55,8
     42,1549	     2847,47	-58,1	      3017,1	-58,3
     42,1569	     2859,46	-57,2	     3025,28	-57,5
     42,1588	     2880,02	-60,0	     3014,68	-56,5
     42,1608	     2878,96	-58,1	     3028,86	-56,4
     42,1628	     2884,72	-57,0	     3071,43	-57,2
     42,1647	     2930,35	-59,8	      3069,8	-56,2
     42,1667	      2930,7	-59,8	     3069,42	-56,5
     42,1686	     2927,42	-55,8	     3097,35	-57,2
     42,1706	     2947,92	-57,0	     3080,28	-53,9
     42,1725	     2950,64	-57,7	     3096,35	-54,2
     42,1745	     2950,06	-56,1	     3147,41	-55,3
     42,1764	     2991,92	-56,6	     3154,82	-54,2
     42,1784	     3001,05	-56,7	     3139,92	-53,4
     42,1804	     2985,64	-55,0	     3155,99	-54,5
     42,1823	     3004,18	-55,2	     3185,13	-53,3
     42,1843	     3024,06	-57,6	        3179	-51,6
     42,1862	     3024,23	-56,4	      3209,4	-54,6
     42,1882	     3065,65	-54,9	     3221,58	-54,0
     42,1901	     3084,69	-55,6	     3213,34	-52,7
     42,1921	     3057,45	-54,0	      3221,7	-52,0
      42,194	     3068,32	-52,7	     3264,39	-52,7
      42,196	     3086,73	-53,4	     3262,41	-51,3
     42,1979	     3114,83	-54,8	     3265,82	-51,8
     42,1999	     3109,21	-53,6	     3292,71	-52,6
     42,2019	     3144,69	-53,2	     3285,84	-49,1
     42,2038	     3155,63	-53,5	     3289,65	-49,5
     42,2058	     3134,25	-51,7	     3333,39	-51,4
     42,2077	     3146,51	-50,9	     3348,71	-50,5
     42,2097	     3195,56	-53,7	     3331,33	-48,8
     42,2116	     3195,63	-53,2	     3338,04	-48,8
     42,2136	     3194,93	-50,7	     3397,86	-50,2
     42,2155	     3217,62	-52,0	     3399,45	-48,8
     42,2175	     3220,78	-52,1	     3397,53	-47,6
     42,2195	     3222,57	-50,3	     3429,42	-50,3
     42,2214	     3232,02	-49,7	     3444,74	-49,5
     42,2234	     3285,78	-51,4	     3431,93	-47,7
     42,2253	     3290,28	-51,2	        3433	-47,4
     42,2273	     3281,97	-48,1	     3482,07	-48,8
     42,2292	     3328,11	-49,9	      3460,9	-45,3
     42,2312	     3330,34	-49,9	     3472,73	-46,2
     42,2331	     3330,68	-48,7	     3490,84	-46,9
     42,2351	     3368,82	-47,1	     3520,49	-44,7
      42,237	     3389,25	-48,6	     3507,77	-44,5
      42,239	      3370,9	-46,9	     3543,48	-46,5
      42,241	     3383,39	-45,8	     3564,44	-45,9
     42,2429	     3425,65	-48,8	     3547,57	-43,8
