X-Data [Hz]	Piezo (M - Filtered) [mV]	Phase [Deg]	Piezo (M - Filtered) [mV]	Phase [Deg]	
	002: [07-09-24 17:36]		003: [07-09-24 17:38]	
        41,5	     95,1448	-100,9	     95,0372	-100,2
      41,502	     94,2822	-103,8	     95,2873	-102,5
     41,5039	      94,158	-104,7	     98,4753	-101,3
     41,5059	      95,414	-101,4	     96,6158	-100,4
     41,5078	      95,859	-103,3	     96,7469	-100,1
     41,5098	     97,0256	-101,8	     96,3786	-102,4
     41,5117	     96,8704	-101,3	     96,0508	-104,0
     41,5137	     96,6478	-101,7	     96,4246	-104,6
     41,5156	     95,8892	-102,6	     96,1062	-102,0
     41,5176	     95,9691	-103,0	     97,7368	-103,8
     41,5196	      95,828	-98,3	     98,2327	-104,9
     41,5215	     97,4587	-99,6	     98,7078	-102,9
     41,5235	     97,8615	-102,0	     97,8956	-105,6
     41,5254	     97,3769	-100,4	     97,2944	-98,2
     41,5274	     98,7105	-104,0	     96,4009	-103,1
     41,5293	     97,3798	-102,2	     98,1856	-104,1
     41,5313	     98,1776	-100,8	     98,9228	-102,5
     41,5332	     98,3676	-101,6	     98,7446	-99,5
     41,5352	     99,8769	-103,7	     98,0867	-100,0
     41,5371	     99,0427	-105,5	     97,9262	-104,8
     41,5391	     99,4794	-100,9	     98,9406	-101,0
     41,5411	     98,7668	-102,9	     98,4817	-104,9
      41,543	     97,8615	-99,0	     98,9979	-101,8
      41,545	     99,1394	-101,0	     98,3117	-101,3
     41,5469	     100,154	-100,5	     99,7798	-101,3
     41,5489	     101,172	-101,2	     98,1794	-99,6
     41,5508	     100,985	-102,3	     99,6995	-104,7
     41,5528	     98,5579	-102,1	     101,639	-105,0
     41,5547	     98,0247	-104,3	     100,196	-101,9
     41,5567	     100,679	-100,3	     100,394	-103,6
     41,5587	     102,689	-103,6	     100,063	-99,9
     41,5606	      100,66	-106,0	     100,569	-103,7
     41,5626	     99,5213	-99,5	     100,132	-99,8
     41,5645	     100,634	-101,7	     100,631	-103,7
     41,5665	     100,472	-99,3	     102,202	-101,1
     41,5684	     101,587	-99,8	     101,595	-98,1
     41,5704	     102,623	-102,4	     100,912	-101,4
     41,5723	     101,684	-100,5	     101,418	-100,8
     41,5743	     102,181	-101,0	     102,544	-104,3
     41,5762	     102,064	-98,9	     103,932	-102,9
     41,5782	     101,695	-103,9	     103,674	-99,4
     41,5802	      101,94	-102,0	     102,081	-101,9
     41,5821	     103,066	-100,8	     102,104	-99,8
     41,5841	     103,992	-102,5	     102,312	-101,8
      41,586	     103,525	-98,6	     101,765	-100,8
      41,588	     102,797	-100,8	     103,438	-102,1
     41,5899	     101,114	-100,1	     104,385	-100,3
     41,5919	     103,037	-99,7	     104,521	-99,2
     41,5938	     103,936	-101,8	     104,535	-103,0
     41,5958	      103,75	-101,4	     104,088	-101,0
     41,5978	     102,869	-102,5	      102,83	-103,8
     41,5997	     104,083	-100,6	     104,347	-105,1
     41,6017	      105,05	-98,6	     104,764	-99,8
     41,6036	     105,715	-104,4	     105,592	-100,7
     41,6056	     104,724	-101,9	     104,929	-99,1
     41,6075	     105,258	-100,2	     104,568	-100,6
     41,6095	     105,052	-99,8	     105,641	-103,6
     41,6114	     104,732	-97,9	     106,641	-100,3
     41,6134	     104,708	-103,2	     105,176	-98,2
     41,6153	     105,769	-101,1	     105,146	-100,3
     41,6173	      104,66	-101,2	     106,877	-103,7
     41,6193	     106,956	-99,3	     106,907	-102,6
     41,6212	     106,281	-97,5	     105,183	-101,7
     41,6232	     106,913	-102,3	     106,034	-101,0
     41,6251	     107,013	-100,1	     105,432	-104,8
     41,6271	     108,377	-103,7	     107,308	-99,4
      41,629	     107,802	-104,0	     107,055	-100,4
      41,631	     106,392	-99,3	       107,9	-99,5
     41,6329	     108,181	-101,1	     107,222	-101,4
     41,6349	      108,36	-97,8	     106,175	-102,9
     41,6369	     108,982	-101,3	     108,192	-99,3
     41,6388	     108,659	-101,2	      109,52	-102,1
     41,6408	     106,906	-100,3	     109,016	-99,1
     41,6427	     106,188	-101,8	      108,74	-99,7
     41,6447	      108,05	-96,6	     107,482	-101,0
     41,6466	     109,921	-104,9	     108,782	-100,9
     41,6486	     108,886	-102,5	     109,382	-100,1
     41,6505	      108,78	-101,4	     110,381	-101,0
     41,6525	     108,843	-103,8	     110,781	-101,8
     41,6544	     109,121	-98,2	     111,475	-100,9
     41,6564	     109,786	-99,3	     111,072	-101,2
     41,6584	      110,21	-100,6	     111,207	-101,6
     41,6603	     111,349	-98,7	     110,224	-102,5
     41,6623	     110,521	-102,9	     109,025	-100,5
     41,6642	     110,362	-98,1	     109,375	-103,2
     41,6662	     110,434	-98,6	     111,709	-98,9
     41,6681	     109,441	-100,0	     112,315	-100,0
     41,6701	     109,397	-99,3	     112,025	-100,1
      41,672	     111,356	-103,4	     111,848	-99,6
      41,674	     112,098	-101,9	     111,888	-102,3
      41,676	     113,368	-103,6	     112,534	-100,7
     41,6779	     113,345	-103,2	      112,86	-101,7
     41,6799	     111,987	-98,8	     113,053	-100,0
     41,6818	      111,53	-99,7	     113,521	-98,5
     41,6838	     111,179	-99,0	     112,609	-102,8
     41,6857	     112,573	-99,2	     112,224	-97,2
     41,6877	     113,265	-100,6	     112,124	-100,4
     41,6896	     114,348	-99,0	     114,083	-98,8
     41,6916	     115,734	-101,1	     114,622	-98,6
     41,6936	     114,546	-99,9	     116,356	-103,1
     41,6955	     114,109	-100,2	     116,288	-100,1
     41,6975	     113,425	-103,8	      114,96	-96,5
     41,6994	     114,433	-97,5	     114,235	-101,8
     41,7014	     114,937	-100,7	      115,27	-99,6
     41,7033	     115,044	-98,2	     115,823	-100,9
     41,7053	      115,35	-97,5	     116,241	-101,8
     41,7072	      115,74	-98,7	     115,046	-99,7
     41,7092	     115,789	-99,4	     115,788	-101,6
     41,7111	     115,608	-97,7	     116,797	-99,2
     41,7131	      116,18	-102,3	     116,849	-99,2
     41,7151	     116,561	-98,3	     117,488	-100,1
      41,717	     116,628	-101,2	     116,818	-97,6
      41,719	     117,205	-100,5	     117,742	-101,6
     41,7209	     116,379	-98,3	     118,244	-100,4
     41,7229	     116,489	-100,2	     117,243	-99,8
     41,7248	     117,221	-98,4	     117,917	-100,6
     41,7268	     118,399	-99,4	     118,609	-97,5
     41,7287	     118,462	-98,1	     117,587	-98,5
     41,7307	     117,882	-97,9	      118,53	-98,6
     41,7327	     118,866	-101,8	     118,499	-98,8
     41,7346	     118,353	-98,3	      118,11	-98,7
     41,7366	     118,514	-101,7	     117,695	-99,0
     41,7385	     118,975	-102,5	     118,867	-98,3
     41,7405	     119,462	-97,3	     120,109	-101,5
     41,7424	     119,307	-97,9	      121,13	-98,3
     41,7444	     119,175	-97,8	     120,371	-99,2
     41,7463	     120,756	-97,1	     120,147	-100,8
     41,7483	     122,116	-101,3	     120,685	-98,4
     41,7502	     121,117	-99,2	     120,803	-101,9
     41,7522	     121,488	-100,4	     121,936	-102,0
     41,7542	     121,548	-100,1	      121,27	-97,0
     41,7561	     120,549	-97,0	     122,503	-100,4
     41,7581	     121,609	-98,0	     122,448	-97,0
       41,76	     122,946	-98,5	     122,876	-96,1
      41,762	     122,162	-97,9	     122,725	-99,1
     41,7639	     123,284	-101,2	     122,762	-100,6
     41,7659	     123,122	-100,8	     123,764	-100,6
     41,7678	     121,824	-100,0	     123,889	-100,7
     41,7698	     122,218	-97,8	     123,334	-97,7
     41,7718	     123,673	-94,9	     123,502	-98,5
     41,7737	     123,786	-101,0	     124,405	-97,1
     41,7757	     124,072	-99,9	     124,436	-97,7
     41,7776	     125,455	-100,1	     124,743	-100,1
     41,7796	     125,991	-101,6	     126,308	-97,3
     41,7815	     124,679	-96,5	     126,757	-98,2
     41,7835	     125,709	-97,5	     125,514	-96,2
     41,7854	     124,616	-97,5	     125,761	-96,6
     41,7874	      125,73	-96,9	      126,99	-101,2
     41,7893	     125,438	-98,7	     126,993	-98,4
     41,7913	     126,375	-98,3	     126,417	-99,6
     41,7933	     126,333	-98,1	     127,003	-101,7
     41,7952	     127,695	-100,9	     126,755	-97,5
     41,7972	     127,328	-99,2	     127,181	-99,2
     41,7991	     126,928	-97,8	     129,866	-97,4
     41,8011	     127,478	-99,0	     129,098	-96,0
      41,803	     127,196	-95,5	     129,691	-99,2
      41,805	     127,546	-97,8	     129,472	-97,7
     41,8069	     128,738	-97,2	     128,539	-96,8
     41,8089	     127,217	-94,7	     128,946	-99,9
     41,8109	     129,738	-98,4	      127,99	-96,6
     41,8128	     129,808	-97,2	     128,204	-98,1
     41,8148	     129,071	-97,7	      132,25	-98,7
     41,8167	     130,069	-97,0	     131,735	-95,5
     41,8187	     130,565	-97,2	     131,414	-100,0
     41,8206	     131,152	-98,4	      130,68	-98,0
     41,8226	     130,258	-97,3	     130,169	-97,1
     41,8245	     131,479	-95,3	     132,699	-99,2
     41,8265	     131,303	-100,2	     134,786	-99,5
     41,8284	     130,962	-96,0	     133,623	-96,5
     41,8304	      132,66	-99,0	     132,006	-98,4
     41,8324	     132,643	-99,1	      132,28	-95,7
     41,8343	     133,384	-96,2	     131,984	-96,5
     41,8363	     133,465	-97,7	     134,461	-99,9
     41,8382	     132,783	-95,6	     135,063	-98,6
     41,8402	     134,072	-95,4	     134,548	-98,5
     41,8421	     134,692	-98,5	     135,047	-98,8
     41,8441	     134,186	-97,3	     135,591	-94,9
      41,846	     134,553	-98,7	     135,239	-94,9
      41,848	     135,512	-100,2	     134,252	-96,9
       41,85	     135,309	-98,7	     135,218	-95,7
     41,8519	     135,693	-95,2	       135,6	-100,3
     41,8539	     137,151	-98,2	     137,571	-99,1
     41,8558	      135,74	-94,3	     138,394	-96,7
     41,8578	     136,349	-93,3	     136,927	-98,9
     41,8597	     137,388	-97,7	     137,836	-93,9
     41,8617	     137,327	-95,7	     137,961	-95,0
     41,8636	     137,985	-98,7	     137,649	-98,2
     41,8656	      137,86	-100,1	     138,105	-95,2
     41,8675	     138,712	-95,2	     138,558	-99,8
     41,8695	     139,195	-99,3	     140,965	-99,9
     41,8715	     138,515	-93,9	     141,447	-99,3
     41,8734	     139,284	-94,0	      141,14	-97,0
     41,8754	     138,501	-98,7	     140,134	-96,0
     41,8773	     139,238	-95,3	     139,499	-94,2
     41,8793	     140,709	-97,1	     139,337	-95,8
     41,8812	     141,249	-99,3	     140,725	-96,1
     41,8832	     140,056	-94,4	     141,968	-95,4
     41,8851	      140,36	-94,9	     142,697	-98,1
     41,8871	     141,494	-95,8	     143,107	-98,8
     41,8891	     142,517	-94,1	     142,954	-95,1
      41,891	     143,263	-99,9	     143,027	-97,5
      41,893	     143,083	-96,4	     142,958	-93,2
     41,8949	     143,131	-96,0	     143,708	-94,2
     41,8969	     143,818	-98,3	     143,575	-96,1
     41,8988	     143,308	-96,1	     143,565	-94,8
     41,9008	     144,332	-94,5	     144,309	-97,7
     41,9027	     144,142	-95,9	     145,622	-97,9
     41,9047	     144,117	-94,8	     145,567	-93,8
     41,9066	     144,172	-94,8	     146,125	-97,7
     41,9086	     145,044	-95,8	     147,205	-96,3
     41,9106	      146,39	-95,2	     146,964	-93,0
     41,9125	     147,373	-97,0	     147,529	-94,8
     41,9145	     146,841	-97,6	     147,748	-95,0
     41,9164	     147,532	-93,8	      147,23	-95,6
     41,9184	     148,357	-94,7	     148,272	-98,7
     41,9203	     147,177	-92,8	     149,578	-96,5
     41,9223	     147,113	-94,4	      148,63	-93,6
     41,9242	     147,716	-97,8	      148,21	-95,6
     41,9262	     149,358	-96,0	     148,886	-93,5
     41,9282	     150,479	-95,9	      149,18	-94,3
     41,9301	     151,859	-95,8	      150,45	-97,0
     41,9321	     150,364	-97,3	     151,382	-95,6
      41,934	     149,045	-93,9	     152,415	-95,9
      41,936	     150,411	-94,8	     152,604	-96,8
     41,9379	     149,856	-92,9	     152,981	-93,8
     41,9399	     149,757	-92,1	     152,169	-93,2
     41,9418	     151,323	-98,2	     152,629	-96,4
     41,9438	     151,972	-95,6	     153,973	-97,0
     41,9457	     153,407	-96,1	     154,205	-95,3
     41,9477	     152,198	-98,6	     154,226	-94,4
     41,9497	     151,288	-92,4	     154,326	-93,7
     41,9516	     152,944	-92,4	       154,3	-95,3
     41,9536	     152,731	-94,4	     155,162	-97,0
     41,9555	      153,49	-91,5	     157,168	-95,2
     41,9575	     155,214	-95,8	     157,431	-92,8
     41,9594	     155,013	-97,9	      157,77	-94,3
     41,9614	     156,804	-93,5	     157,298	-91,3
     41,9633	     157,542	-95,4	     156,401	-92,6
     41,9653	     158,229	-91,6	     159,087	-93,8
     41,9673	     157,556	-92,1	     158,562	-92,6
     41,9692	     157,276	-95,3	     159,621	-94,6
     41,9712	     157,756	-93,1	     160,821	-96,8
     41,9731	     159,753	-92,9	     160,307	-95,9
     41,9751	     160,537	-94,7	     159,878	-93,8
      41,977	     159,585	-93,6	     160,546	-96,3
      41,979	     158,804	-92,9	     159,942	-92,4
     41,9809	     159,705	-94,1	     162,357	-93,3
     41,9829	     160,023	-93,1	     164,126	-93,3
     41,9848	     160,294	-92,0	     162,988	-91,3
     41,9868	     161,107	-93,7	     162,443	-95,2
     41,9888	     161,792	-93,3	     162,761	-95,3
     41,9907	     163,051	-92,0	     163,238	-93,4
     41,9927	     162,891	-94,5	     165,082	-93,3
     41,9946	     162,499	-93,3	     164,904	-92,2
     41,9966	      163,43	-92,2	     165,424	-91,8
     41,9985	      164,36	-93,5	      165,88	-92,3
     42,0005	      164,94	-91,9	     166,236	-95,2
     42,0024	     165,054	-91,4	     167,829	-93,2
     42,0044	     165,686	-92,8	     166,717	-91,3
     42,0064	     165,887	-89,1	     167,439	-93,9
     42,0083	     166,534	-88,6	     168,496	-91,2
     42,0103	     167,166	-95,8	     169,043	-92,8
     42,0122	     166,691	-93,1	     169,989	-95,1
     42,0142	     168,867	-94,1	     170,796	-92,4
     42,0161	     169,196	-94,2	     170,196	-93,7
     42,0181	     168,815	-92,1	     170,507	-93,6
       42,02	     168,879	-90,6	     170,189	-88,9
      42,022	      169,66	-92,2	     170,023	-90,7
     42,0239	     169,232	-93,1	     171,453	-92,8
     42,0259	     169,753	-91,4	     172,493	-90,2
     42,0279	     170,485	-92,9	     173,085	-92,8
     42,0298	     171,444	-91,6	     174,273	-93,9
     42,0318	     172,926	-91,4	     173,552	-90,1
     42,0337	     173,819	-93,9	     174,705	-91,3
     42,0357	     173,333	-92,4	     174,768	-92,0
     42,0376	     174,408	-92,9	     175,161	-93,1
     42,0396	     174,494	-93,9	     175,685	-91,6
     42,0415	     175,017	-86,9	     176,364	-92,0
     42,0435	      176,12	-90,3	     176,671	-89,3
     42,0455	     175,625	-92,5	     177,713	-90,1
     42,0474	     175,634	-90,7	      179,83	-93,6
     42,0494	     177,877	-92,7	      179,65	-91,9
     42,0513	     177,667	-93,9	     180,084	-90,1
     42,0533	     178,038	-92,7	     181,378	-94,3
     42,0552	     178,136	-90,6	       181,7	-91,4
     42,0572	     179,073	-91,6	     181,146	-90,0
     42,0591	     179,809	-90,5	     182,023	-90,2
     42,0611	     180,505	-90,4	     182,555	-88,0
      42,063	     181,543	-92,0	     183,097	-89,2
      42,065	     181,372	-86,7	     184,029	-93,5
      42,067	     181,413	-88,1	     185,105	-91,2
     42,0689	     182,739	-93,2	     184,354	-90,1
     42,0709	     182,677	-90,9	     184,995	-90,4
     42,0728	     183,448	-89,0	     186,534	-90,5
     42,0748	     184,748	-93,2	     186,088	-89,3
     42,0767	     185,279	-93,4	     186,314	-92,6
     42,0787	     185,372	-89,2	     187,093	-93,0
     42,0806	     186,647	-91,6	     188,539	-87,6
     42,0826	     187,238	-88,9	     189,429	-90,3
     42,0846	     187,047	-88,9	     191,283	-88,6
     42,0865	     187,012	-90,7	     191,064	-86,2
     42,0885	     188,789	-89,1	     191,771	-89,5
     42,0904	     189,918	-90,6	     191,225	-91,5
     42,0924	     190,512	-91,3	     192,375	-87,7
     42,0943	     190,605	-88,5	     193,061	-88,2
     42,0963	     190,026	-88,6	     192,798	-89,4
     42,0982	     191,271	-89,2	     194,242	-89,4
     42,1002	     191,607	-87,9	     194,341	-88,4
     42,1021	     192,786	-87,8	      194,54	-91,0
     42,1041	     193,547	-90,1	     196,168	-91,3
     42,1061	     194,188	-88,3	     198,672	-87,7
      42,108	     194,361	-87,2	      199,75	-88,4
       42,11	     195,149	-87,3	     200,468	-85,9
     42,1119	     195,891	-88,1	      198,31	-85,4
     42,1139	     195,607	-86,7	     200,052	-90,8
     42,1158	     198,206	-92,3	     200,548	-89,9
     42,1178	     198,548	-89,8	     200,896	-88,4
     42,1197	     198,057	-87,2	     201,873	-90,3
     42,1217	     199,681	-87,5	     203,419	-89,5
     42,1237	     199,882	-89,4	     203,742	-87,3
     42,1256	     201,099	-86,1	     203,923	-89,2
     42,1276	     201,024	-84,7	      204,67	-89,6
     42,1295	     200,674	-90,2	     204,583	-85,7
     42,1315	     200,493	-86,5	     205,109	-85,6
     42,1334	      201,85	-87,4	         208	-87,5
     42,1354	     203,803	-86,9	     207,056	-86,6
     42,1373	     204,971	-86,2	      207,49	-88,4
     42,1393	     206,944	-85,9	      207,41	-88,4
     42,1413	     208,279	-86,2	      208,42	-84,8
     42,1432	     209,211	-88,7	     209,404	-87,7
     42,1452	     209,429	-86,3	     211,382	-90,4
     42,1471	     210,329	-86,7	     212,392	-88,4
     42,1491	     209,234	-85,7	      212,44	-86,8
      42,151	     209,496	-83,6	     213,588	-88,0
      42,153	     210,185	-87,3	     213,442	-84,5
     42,1549	     210,376	-86,8	     214,251	-84,3
     42,1569	     210,116	-82,1	     214,874	-87,2
     42,1588	     210,781	-83,4	     215,388	-87,6
     42,1608	     211,895	-88,0	     217,578	-85,0
     42,1628	     212,702	-84,7	     218,428	-84,0
     42,1647	     214,418	-83,6	     220,115	-88,3
     42,1667	     215,278	-88,2	     221,366	-85,8
     42,1686	      216,26	-87,3	     222,075	-84,0
     42,1706	     217,765	-84,3	     222,032	-86,2
     42,1725	     218,831	-85,0	     222,212	-87,1
     42,1745	     218,589	-85,4	     223,661	-84,9
     42,1764	     220,117	-82,8	     224,413	-83,6
     42,1784	     222,691	-82,1	     225,119	-86,7
     42,1804	     223,686	-85,2	     226,007	-86,0
     42,1823	     223,094	-82,9	     227,268	-85,8
     42,1843	     225,445	-85,8	     227,712	-84,7
     42,1862	     226,586	-86,4	     228,808	-80,8
     42,1882	     227,074	-83,6	     229,523	-81,2
     42,1901	      226,22	-83,9	     231,072	-86,2
     42,1921	     226,772	-84,3	     232,238	-84,3
      42,194	     227,261	-83,3	     232,575	-83,4
      42,196	      227,72	-82,6	     233,031	-84,4
     42,1979	     229,106	-83,8	     233,454	-84,7
     42,1999	     228,765	-85,6	     235,261	-83,5
     42,2019	     229,529	-80,6	     235,927	-84,6
     42,2038	     230,669	-81,5	     236,574	-86,4
     42,2058	     232,931	-81,9	     237,418	-84,1
     42,2077	     233,388	-79,6	     237,479	-80,4
     42,2097	     235,083	-82,4	     237,607	-85,0
     42,2116	     236,033	-83,2	     239,984	-81,7
     42,2136	     236,497	-81,6	     241,393	-81,1
     42,2155	      236,45	-80,9	     241,817	-82,0
     42,2175	     238,536	-82,5	     245,339	-80,5
     42,2195	     238,568	-82,2	     245,432	-80,0
     42,2214	     240,414	-80,2	     246,977	-83,6
     42,2234	     241,142	-82,1	     246,563	-83,5
     42,2253	     240,329	-84,0	     246,823	-81,5
     42,2273	     241,276	-78,1	     249,672	-81,8
     42,2292	     242,458	-79,3	     250,142	-80,5
     42,2312	     243,698	-79,1	     251,569	-82,1
     42,2331	     244,933	-79,1	     252,162	-82,0
     42,2351	     246,389	-78,6	     254,315	-82,0
      42,237	     247,437	-79,2	     255,738	-82,7
